##TITLE= W6725_5mm_240124
##JCAMP-DX= 4.24
##DATA TYPE= UV/VIS SPECTRUM
##ORIGIN=  Lambda-SPX/P Scan
##OWNER= Optiplex/OPTIPLEX-755
##DATE= 24.01.2024 17:08:54
##SPECTROMETER/DATA SYSTEM= Lambda 19 UV/Vis/NIR
##SAMPLE DESCRIPTION= 240124
##DELTAX= 0.5
##XUNITS= NANOMETERS
##YUNITS= TRANSMITTANCE
$$COMMENT= RTUNITS 0-1
##XFACTOR= 1.0
##YFACTOR= 0.01
##FIRSTX= 190
##LASTX= 2800
##NPOINTS= 5221
##FIRSTY= 0.002671
##MAXY= 0.320896
##MINY= -0.000222
##XYDATA= (XY..XY)
190 0.267131
190.5 0.195219
191 0.166242
191.5 0.156263
192 0.135085
192.5 0.119072
193 0.085886
193.5 0.0706
194 0.056227
194.5 0.041392
195 0.02055
195.5 0.023034
196 0.02025
196.5 0.01217
197 0.00549
197.5 0.008021
198 0.004814
198.5 0.007151
199 0.006703
199.5 0.004034
200 0.007503
200.5 0.002997
201 0.008176
201.5 -0.00063
202 0.011625
202.5 -0.001777
203 0.010396
203.5 0.004042
204 0.002352
204.5 0.005656
205 0.003888
205.5 0.004854
206 -0.003995
206.5 0.006287
207 -0.000893
207.5 0.00723
208 0.002973
208.5 0.003175
209 0.002521
209.5 0.004754
210 0.005294
210.5 0.002809
211 0.008431
211.5 0.000672
212 0.005821
212.5 0.003484
213 0.004287
213.5 0.001657
214 0.006374
214.5 0.007554
215 0.00229
215.5 0.007739
216 0.001727
216.5 0.009427
217 0.003285
217.5 0.006816
218 -0.002897
218.5 0.006645
219 -0.000724
219.5 0.00467
220 0.004326
220.5 0.002642
221 0.005276
221.5 0.008278
222 0.004649
222.5 0.00343
223 0.007113
223.5 0.003901
224 0.002675
224.5 0.004645
225 0.002363
225.5 0.009961
226 0.004993
226.5 0.009322
227 -0.000518
227.5 0.009595
228 -0.004003
228.5 0.007301
229 0.000214
229.5 0.005748
230 0.002913
230.5 0.00948
231 0.005923
231.5 -0.001009
232 0.00673
232.5 0.000582
233 0.005475
233.5 0.004864
234 0.005745
234.5 0.004532
235 0.004759
235.5 0.007001
236 0.000424
236.5 0.013815
237 -0.000462
237.5 0.00993
238 0.001296
238.5 0.007408
239 0.002082
239.5 0.009495
240 0.00554
240.5 0.000071
241 0.007606
241.5 0.001797
242 0.007454
242.5 0.00411
243 0.004793
243.5 0.001879
244 0.005103
244.5 0.006077
245 0.00295
245.5 0.007052
246 0.001994
246.5 0.007773
247 0.005583
247.5 0.009633
248 0.001102
248.5 0.005742
249 0.006545
249.5 0.003704
250 0.005762
250.5 0.003162
251 0.008549
251.5 0.00555
252 0.005256
252.5 0.000862
253 0.009149
253.5 0.004811
254 0.005894
254.5 0.001706
255 0.004111
255.5 0.00327
256 0.008994
256.5 0.006437
257 0.002085
257.5 0.00738
258 0.00634
258.5 0.006548
259 0.005843
259.5 0.006743
260 0.005541
260.5 0.005777
261 0.007269
261.5 0.001018
262 0.01171
262.5 0.002425
263 0.00644
263.5 -0.002008
264 0.007498
264.5 0.000847
265 0.008341
265.5 0.003582
266 0.001877
266.5 0.005731
267 0.005196
267.5 0.007344
268 0.000044
268.5 0.008025
269 0.003191
269.5 0.007025
270 0.006882
270.5 0.002853
271 0.010236
271.5 0.004359
272 0.009957
272.5 0.000151
273 0.01271
273.5 -0.001284
274 0.008823
274.5 0.001939
275 0.004345
275.5 0.005877
276 0.007235
276.5 0.00841
277 -0.000845
277.5 0.007605
278 -0.000318
278.5 0.006163
279 0.006087
279.5 0.003977
280 0.002461
280.5 0.007463
281 0.007161
281.5 0.002512
282 0.008957
282.5 0.002274
283 0.008573
283.5 0.005341
284 0.007404
284.5 0.003618
285 0.006617
285.5 0.006837
286 0.00283
286.5 0.00679
287 0.002844
287.5 0.008476
288 0.005137
288.5 0.006818
289 -0.000403
289.5 0.006796
290 0.001149
290.5 0.005643
291 0.003046
291.5 0.005451
292 0.005506
292.5 0.0073
293 0.004322
293.5 0.002127
294 0.006408
294.5 0.004185
295 0.006531
295.5 0.004853
296 0.005219
296.5 0.00832
297 0.006467
297.5 0.008713
298 -0.000399
298.5 0.011344
299 -0.000557
299.5 0.007592
300 -0.003642
300.5 0.005913
301 0.001679
301.5 0.008547
302 0.006768
302.5 0.000246
303 0.006458
303.5 0.004548
304 0.005877
304.5 0.00192
305 0.00636
305.5 0.005352
306 0.005164
306.5 0.006064
307 0.00209
307.5 0.011797
308 0.002967
308.5 0.009551
309 -0.000868
309.5 0.009234
310 -0.000353
310.5 0.0076
311 0.002484
311.5 0.001331
312 0.006769
312.5 0.004146
313 0.006591
313.5 -0.000242
314 0.008016
314.5 0.000692
315 0.007058
315.5 0.004555
316 0.004347
316.5 0.00502
317 0.004665
317.5 0.00583
318 0.002494
318.5 0.004612
319 -0.022224
319.5 0.009595
320 0.00147
320.5 0.006954
321 0.004179
321.5 0.001846
322 0.004539
322.5 0.00543
323 0.008063
323.5 0.00143
324 0.006746
324.5 -0.000121
325 0.008461
325.5 0.005596
326 0.005835
326.5 0.004448
327 0.006165
327.5 0.005355
328 0.006309
328.5 0.008403
329 0.003016
329.5 0.005983
330 0.009756
330.5 0.008277
331 0.005542
331.5 0.010118
332 0.009745
332.5 0.005759
333 0.012323
333.5 0.006408
334 0.013856
334.5 0.009223
335 0.013066
335.5 0.003989
336 0.014181
336.5 0.005154
337 0.014433
337.5 0.012403
338 0.011642
338.5 0.01342
339 0.018856
339.5 0.016883
340 0.01201
340.5 0.019994
341 0.015765
341.5 0.018896
342 0.020351
342.5 0.018217
343 0.02425
343.5 0.02081
344 0.028179
344.5 0.018217
345 0.031235
345.5 0.020031
346 0.032597
346.5 0.024368
347 0.030375
347.5 0.032689
348 0.039273
348.5 0.038934
349 0.034947
349.5 0.044192
350 0.038669
350.5 0.048839
351 0.049443
351.5 0.05015
352 0.051469
352.5 0.055668
353 0.059171
353.5 0.059075
354 0.070207
354.5 0.061736
355 0.076227
355.5 0.074123
356 0.081548
356.5 0.078199
357 0.084653
357.5 0.086523
358 0.087163
358.5 0.098743
359 0.094356
359.5 0.106789
360 0.111181
360.5 0.114072
361 0.115293
361.5 0.124703
362 0.129407
362.5 0.138742
363 0.142548
363.5 0.146051
364 0.156601
364.5 0.160566
365 0.173961
365.5 0.172168
366 0.192102
366.5 0.192523
367 0.202562
367.5 0.21394
368 0.221652
368.5 0.235096
369 0.24918
369.5 0.260101
370 0.270888
370.5 0.295213
371 0.294693
371.5 0.32333
372 0.332509
372.5 0.357726
373 0.375728
373.5 0.405109
374 0.41787
374.5 0.44277
375 0.484135
375.5 0.506351
376 0.53798
376.5 0.564848
377 0.618298
377.5 0.646285
378 0.699672
378.5 0.747905
379 0.785424
379.5 0.870244
380 0.935374
380.5 1.003816
381 1.073688
381.5 1.147358
382 1.239538
382.5 1.319805
383 1.43602
383.5 1.512724
384 1.629292
384.5 1.73035
385 1.863834
385.5 1.966767
386 2.083349
386.5 2.236008
387 2.350862
387.5 2.501743
388 2.636164
388.5 2.773723
389 2.900529
389.5 3.028795
390 3.164204
390.5 3.296906
391 3.414702
391.5 3.538046
392 3.663658
392.5 3.755674
393 3.879044
393.5 3.943228
394 4.022872
394.5 4.072784
395 4.185679
395.5 4.214964
396 4.324762
396.5 4.358406
397 4.414839
397.5 4.463521
398 4.523583
398.5 4.562415
399 4.597494
399.5 4.645261
400 4.682265
400.5 4.724735
401 4.781375
401.5 4.821385
402 4.864501
402.5 4.906553
403 4.962544
403.5 4.999952
404 5.065246
404.5 5.075445
405 5.176345
405.5 5.227711
406 5.279298
406.5 5.342446
407 5.402541
407.5 5.46602
408 5.51223
408.5 5.59454
409 5.632818
409.5 5.695784
410 5.789596
410.5 5.827755
411 5.85999
411.5 5.942907
412 6.008128
412.5 6.053437
413 6.092217
413.5 6.164483
414 6.198155
414.5 6.258531
415 6.309227
415.5 6.317893
416 6.3563
416.5 6.377912
417 6.400316
417.5 6.436771
418 6.448258
418.5 6.466795
419 6.479004
419.5 6.476106
420 6.439682
420.5 6.441879
421 6.448358
421.5 6.426565
422 6.407146
422.5 6.39509
423 6.361871
423.5 6.329416
424 6.291945
424.5 6.246061
425 6.235895
425.5 6.156035
426 6.13443
426.5 6.062114
427 6.038305
427.5 5.970321
428 5.921299
428.5 5.886481
429 5.799561
429.5 5.77213
430 5.695726
430.5 5.653427
431 5.57112
431.5 5.545129
432 5.488281
432.5 5.428189
433 5.358932
433.5 5.294293
434 5.242194
434.5 5.196993
435 5.145071
435.5 5.105
436 5.031935
436.5 5.003021
437 4.948101
437.5 4.884866
438 4.83258
438.5 4.798319
439 4.751834
439.5 4.695357
440 4.624164
440.5 4.619976
441 4.564328
441.5 4.55359
442 4.495884
442.5 4.443102
443 4.403809
443.5 4.366101
444 4.319593
444.5 4.28047
445 4.272378
445.5 4.237188
446 4.206737
446.5 4.181793
447 4.152367
447.5 4.132269
448 4.08853
448.5 4.086927
449 4.055642
449.5 4.079997
450 4.024142
450.5 3.994899
451 3.989412
451.5 3.98343
452 3.962186
452.5 3.956411
453 3.951383
453.5 3.924061
454 3.933281
454.5 3.915469
455 3.914047
455.5 3.925237
456 3.901838
456.5 3.89932
457 3.900684
457.5 3.898242
458 3.901444
458.5 3.91958
459 3.910492
459.5 3.900047
460 3.913744
460.5 3.914829
461 3.915891
461.5 3.922906
462 3.928951
462.5 3.943509
463 3.954194
463.5 3.961557
464 3.991063
464.5 3.996349
465 3.997621
465.5 4.010468
466 4.024876
466.5 4.035698
467 4.063314
467.5 4.076515
468 4.104665
468.5 4.108179
469 4.134717
469.5 4.154165
470 4.182534
470.5 4.204912
471 4.213941
471.5 4.241042
472 4.266347
472.5 4.29813
473 4.327969
473.5 4.358782
474 4.390009
474.5 4.409049
475 4.460962
475.5 4.478793
476 4.524702
476.5 4.555531
477 4.603865
477.5 4.644558
478 4.697155
478.5 4.723998
479 4.780622
479.5 4.80854
480 4.865605
480.5 4.907717
481 4.97121
481.5 5.022772
482 5.066616
482.5 5.132053
483 5.177288
483.5 5.240016
484 5.294486
484.5 5.344331
485 5.417291
485.5 5.467252
486 5.532159
486.5 5.571966
487 5.654108
487.5 5.700234
488 5.767721
488.5 5.831645
489 5.891718
489.5 5.96163
490 6.019717
490.5 6.06831
491 6.143459
491.5 6.208003
492 6.275581
492.5 6.316241
493 6.394337
493.5 6.445869
494 6.526555
494.5 6.588539
495 6.636178
495.5 6.67497
496 6.760417
496.5 6.8073
497 6.87105
497.5 6.917515
498 6.99845
498.5 7.044125
499 7.097942
499.5 7.156934
500 7.236758
500.5 7.275853
501 7.34284
501.5 7.37645
502 7.427609
502.5 7.496186
503 7.530383
503.5 7.613155
504 7.645071
504.5 7.709002
505 7.754841
505.5 7.79997
506 7.831921
506.5 7.884734
507 7.933567
507.5 7.994632
508 8.040508
508.5 8.092783
509 8.132835
509.5 8.17214
510 8.209402
510.5 8.25117
511 8.282225
511.5 8.336622
512 8.355547
512.5 8.418847
513 8.434751
513.5 8.483484
514 8.499524
514.5 8.537211
515 8.549011
515.5 8.577164
516 8.593272
516.5 8.596704
517 8.639382
517.5 8.63708
518 8.656567
518.5 8.645442
519 8.669382
519.5 8.663218
520 8.659174
520.5 8.674029
521 8.657872
521.5 8.663896
522 8.630714
522.5 8.637767
523 8.610813
523.5 8.612569
524 8.585925
524.5 8.573727
525 8.561953
525.5 8.533796
526 8.536655
526.5 8.500988
527 8.471968
527.5 8.441091
528 8.42573
528.5 8.402418
529 8.364763
529.5 8.336174
530 8.320522
530.5 8.293504
531 8.235997
531.5 8.221127
532 8.185162
532.5 8.158696
533 8.130766
533.5 8.094593
534 8.05759
534.5 8.018059
535 7.998702
535.5 7.959563
536 7.922933
536.5 7.886651
537 7.851269
537.5 7.819847
538 7.801653
538.5 7.762987
539 7.719304
539.5 7.685744
540 7.652076
540.5 7.614411
541 7.57986
541.5 7.56572
542 7.510731
542.5 7.480726
543 7.452459
543.5 7.42017
544 7.364178
544.5 7.356194
545 7.328499
545.5 7.291358
546 7.256167
546.5 7.200526
547 7.194222
547.5 7.146244
548 7.115726
548.5 7.095786
549 7.057349
549.5 7.019939
550 6.978487
550.5 6.965922
551 6.921242
551.5 6.922752
552 6.871886
552.5 6.857922
553 6.821625
553.5 6.792097
554 6.758158
554.5 6.719394
555 6.720559
555.5 6.66962
556 6.645896
556.5 6.611987
557 6.588945
557.5 6.558841
558 6.542838
558.5 6.504839
559 6.47753
559.5 6.452057
560 6.465832
560.5 6.40253
561 6.372254
561.5 6.354801
562 6.337056
562.5 6.300735
563 6.277175
563.5 6.246939
564 6.236282
564.5 6.203458
565 6.188265
565.5 6.15751
566 6.136612
566.5 6.129757
567 6.101756
567.5 6.082575
568 6.05978
568.5 6.059512
569 6.036364
569.5 6.01433
570 6.002119
570.5 5.993487
571 5.958192
571.5 5.954821
572 5.942436
572.5 5.933695
573 5.913876
573.5 5.903896
574 5.896312
574.5 5.879607
575 5.881771
575.5 5.861162
576 5.853389
576.5 5.858086
577 5.845931
577.5 5.845714
578 5.828927
578.5 5.82665
579 5.815754
579.5 5.824882
580 5.809996
580.5 5.811226
581 5.799222
581.5 5.797955
582 5.805589
582.5 5.807577
583 5.800046
583.5 5.808013
584 5.811288
584.5 5.80557
585 5.806639
585.5 5.824285
586 5.824192
586.5 5.81787
587 5.83763
587.5 5.840477
588 5.842655
588.5 5.855504
589 5.850552
589.5 5.872781
590 5.864971
590.5 5.882166
591 5.89057
591.5 5.914298
592 5.915288
592.5 5.922829
593 5.944767
593.5 5.947631
594 5.968802
594.5 5.988671
595 5.996892
595.5 6.002045
596 6.028211
596.5 6.04558
597 6.052544
597.5 6.064579
598 6.090266
598.5 6.109369
599 6.126548
599.5 6.147857
600 6.162919
600.5 6.176944
601 6.205246
601.5 6.221009
602 6.235123
602.5 6.259387
603 6.277121
603.5 6.306815
604 6.328965
604.5 6.337768
605 6.370972
605.5 6.390724
606 6.415263
606.5 6.431554
607 6.462734
607.5 6.493489
608 6.520809
608.5 6.539631
609 6.555713
609.5 6.583964
610 6.609576
610.5 6.635667
611 6.65374
611.5 6.694522
612 6.703574
612.5 6.733735
613 6.766149
613.5 6.795586
614 6.824648
614.5 6.845254
615 6.872368
615.5 6.895679
616 6.92264
616.5 6.946796
617 6.979234
617.5 6.99798
618 7.039435
618.5 7.067816
619 7.091446
619.5 7.12209
620 7.143186
620.5 7.184269
621 7.201055
621.5 7.23605
622 7.267481
622.5 7.290809
623 7.329709
623.5 7.378757
624 7.377598
624.5 7.412841
625 7.436051
625.5 7.485048
626 7.517761
626.5 7.535432
627 7.568425
627.5 7.609989
628 7.638936
628.5 7.669424
629 7.69881
629.5 7.732948
630 7.761826
630.5 7.78771
631 7.824915
631.5 7.849859
632 7.88059
632.5 7.931039
633 7.950218
633.5 7.986333
634 7.997862
634.5 8.053318
635 8.081967
635.5 8.115099
636 8.137621
636.5 8.177857
637 8.211009
637.5 8.249935
638 8.269736
638.5 8.305807
639 8.334133
639.5 8.369
640 8.405604
640.5 8.443072
641 8.457245
641.5 8.513074
642 8.510768
642.5 8.573996
643 8.59253
643.5 8.632504
644 8.664426
644.5 8.689212
645 8.71504
645.5 8.773204
646 8.792765
646.5 8.807262
647 8.842327
647.5 8.873664
648 8.902897
648.5 8.929304
649 8.960994
649.5 8.994658
650 9.031674
650.5 9.048134
651 9.086572
651.5 9.118012
652 9.139013
652.5 9.156835
653 9.182319
653.5 9.210195
654 9.228108
654.5 9.251437
655 9.270739
655.5 9.293962
656 9.320936
656.5 9.361544
657 9.364523
657.5 9.378083
658 9.414084
658.5 9.41391
659 9.446919
659.5 9.451274
660 9.500408
660.5 9.501451
661 9.524808
661.5 9.532888
662 9.544354
662.5 9.555757
663 9.586629
663.5 9.601089
664 9.609807
664.5 9.616864
665 9.64282
665.5 9.642244
666 9.639734
666.5 9.659611
667 9.688842
667.5 9.689268
668 9.694824
668.5 9.663189
669 9.711345
669.5 9.709936
670 9.724604
670.5 9.735297
671 9.754784
671.5 9.72959
672 9.744367
672.5 9.754676
673 9.739159
673.5 9.759838
674 9.749956
674.5 9.748986
675 9.765354
675.5 9.767736
676 9.758043
676.5 9.758604
677 9.729349
677.5 9.747678
678 9.769021
678.5 9.739564
679 9.778894
679.5 9.742717
680 9.743227
680.5 9.743233
681 9.743959
681.5 9.759592
682 9.72198
682.5 9.736136
683 9.715923
683.5 9.729058
684 9.707551
684.5 9.713208
685 9.70385
685.5 9.708104
686 9.703493
686.5 9.693241
687 9.678838
687.5 9.682222
688 9.662654
688.5 9.6705
689 9.637322
689.5 9.651355
690 9.651486
690.5 9.636948
691 9.629339
691.5 9.612707
692 9.605663
692.5 9.608655
693 9.603358
693.5 9.591517
694 9.572389
694.5 9.567016
695 9.557799
695.5 9.549874
696 9.533267
696.5 9.523138
697 9.52059
697.5 9.501711
698 9.49922
698.5 9.486559
699 9.48685
699.5 9.482048
700 9.456392
700.5 9.470398
701 9.454706
701.5 9.444527
702 9.419268
702.5 9.424105
703 9.400062
703.5 9.403847
704 9.383892
704.5 9.406454
705 9.368189
705.5 9.372689
706 9.361408
706.5 9.344512
707 9.363379
707.5 9.315604
708 9.300369
708.5 9.304772
709 9.28647
709.5 9.281926
710 9.285309
710.5 9.26552
711 9.236925
711.5 9.247819
712 9.241182
712.5 9.240495
713 9.206518
713.5 9.22301
714 9.207986
714.5 9.213878
715 9.186154
715.5 9.17614
716 9.175417
716.5 9.136588
717 9.148479
717.5 9.146186
718 9.153033
718.5 9.125596
719 9.150015
719.5 9.104176
720 9.12768
720.5 9.101497
721 9.099128
721.5 9.103222
722 9.081694
722.5 9.075444
723 9.06843
723.5 9.071203
724 9.06426
724.5 9.056158
725 9.061578
725.5 9.030195
726 9.054446
726.5 9.035945
727 9.030637
727.5 9.000003
728 9.041001
728.5 8.99621
729 9.031941
729.5 9.013292
730 8.999781
730.5 8.996241
731 9.002165
731.5 8.990954
732 8.976669
732.5 8.974062
733 8.962522
733.5 8.95168
734 8.963141
734.5 8.96218
735 8.954172
735.5 8.931767
736 8.955795
736.5 8.936286
737 8.941685
737.5 8.946197
738 8.942514
738.5 8.9242
739 8.915255
739.5 8.911837
740 8.908345
740.5 8.906984
741 8.895072
741.5 8.911853
742 8.870009
742.5 8.913995
743 8.904587
743.5 8.898123
744 8.89493
744.5 8.9134
745 8.897721
745.5 8.878297
746 8.881257
746.5 8.884136
747 8.87991
747.5 8.856638
748 8.89211
748.5 8.860488
749 8.892503
749.5 8.86227
750 8.862893
750.5 8.844144
751 8.864889
751.5 8.879432
752 8.839316
752.5 8.850776
753 8.870646
753.5 8.873405
754 8.844256
754.5 8.867948
755 8.846408
755.5 8.872575
756 8.852524
756.5 8.86567
757 8.863495
757.5 8.854249
758 8.861087
758.5 8.872852
759 8.865427
759.5 8.861267
760 8.84781
760.5 8.88823
761 8.867081
761.5 8.895775
762 8.841163
762.5 8.875147
763 8.867949
763.5 8.858229
764 8.862922
764.5 8.89126
765 8.866402
765.5 8.883086
766 8.857033
766.5 8.879975
767 8.88704
767.5 8.877582
768 8.870656
768.5 8.887158
769 8.866954
769.5 8.891779
770 8.888192
770.5 8.882991
771 8.883389
771.5 8.900701
772 8.906838
772.5 8.911329
773 8.889091
773.5 8.904055
774 8.911622
774.5 8.937704
775 8.906413
775.5 8.920341
776 8.921129
776.5 8.917046
777 8.918846
777.5 8.916838
778 8.953822
778.5 8.938878
779 8.938697
779.5 8.969346
780 8.949618
780.5 8.945902
781 8.972839
781.5 8.928344
782 8.978357
782.5 8.968931
783 8.976736
783.5 8.965088
784 8.980036
784.5 9.010968
785 9.025604
785.5 9.026682
786 9.048771
786.5 9.032284
787 9.028805
787.5 9.062304
788 9.070787
788.5 9.021238
789 9.063086
789.5 9.011773
790 9.083617
790.5 9.092332
791 9.066066
791.5 9.100288
792 9.046733
792.5 9.118447
793 9.110531
793.5 9.110396
794 9.101295
794.5 9.14095
795 9.139998
795.5 9.156605
796 9.168129
796.5 9.145436
797 9.158111
797.5 9.185819
798 9.202774
798.5 9.192657
799 9.225242
799.5 9.20966
800 9.222019
800.5 9.241311
801 9.228609
801.5 9.264901
802 9.22408
802.5 9.256455
803 9.23603
803.5 9.26078
804 9.291368
804.5 9.294632
805 9.337537
805.5 9.321822
806 9.33165
806.5 9.349771
807 9.374031
807.5 9.361077
808 9.351167
808.5 9.389734
809 9.365371
809.5 9.385438
810 9.38645
810.5 9.392923
811 9.410437
811.5 9.437893
812 9.436482
812.5 9.408607
813 9.482371
813.5 9.465902
814 9.467358
814.5 9.485405
815 9.498217
815.5 9.498913
816 9.538866
816.5 9.510969
817 9.561814
817.5 9.512628
818 9.541169
818.5 9.573102
819 9.609623
819.5 9.565743
820 9.607957
820.5 9.612458
821 9.576754
821.5 9.646284
822 9.66913
822.5 9.689144
823 9.683634
823.5 9.680008
824 9.673743
824.5 9.694837
825 9.685582
825.5 9.720369
826 9.674218
826.5 9.714967
827 9.77825
827.5 9.718556
828 9.798316
828.5 9.756941
829 9.790589
829.5 9.766091
830 9.8064
830.5 9.78286
831 9.792437
831.5 9.825822
832 9.843583
832.5 9.840211
833 9.767929
833.5 9.831316
834 9.863909
834.5 9.887145
835 9.874488
835.5 9.91389
836 9.910514
836.5 9.962902
837 9.920227
837.5 9.884136
838 9.912634
838.5 9.927748
839 9.955011
839.5 9.981045
840 9.980562
840.5 10.021381
841 9.991314
841.5 10.01912
842 10.052211
842.5 9.989068
843 10.047483
843.5 10.033951
844 10.068446
844.5 10.062999
845 10.129147
845.5 10.094213
846 10.148483
846.5 10.059065
847 10.092167
847.5 10.231913
848 10.196727
848.5 10.153431
849 10.224731
849.5 10.162641
850 10.266094
850.5 10.201918
851 10.281797
851.5 10.272521
852 10.241367
852.5 10.31919
853 10.360916
853.5 10.30907
854 10.335662
854.5 10.382523
855 10.402407
855.5 10.391875
856 10.401756
856.5 10.452125
857 10.473411
857.5 10.521929
858 10.449586
858.5 10.530329
859 10.547743
859.5 10.529343
860 10.595527
860.5 10.605585
861 7.622787
861.5 7.529294
862 7.50692
862.5 7.607926
863 7.512519
863.5 7.684444
864 7.476182
864.5 7.662047
865 7.500011
865.5 7.710493
866 7.550894
866.5 7.642745
867 7.639012
867.5 7.511015
868 7.745425
868.5 7.637961
869 7.787472
869.5 7.573266
870 7.781445
870.5 7.698705
871 7.805481
871.5 7.728918
872 7.757343
872.5 7.756909
873 7.785406
873.5 7.899576
874 7.778743
874.5 7.877294
875 7.810839
875.5 7.959639
876 7.827328
876.5 7.839043
877 7.916865
877.5 7.942171
878 7.986891
878.5 7.807312
879 8.03832
879.5 7.900403
880 8.026136
880.5 7.793134
881 8.028901
881.5 7.827903
882 8.102679
882.5 8.034553
883 8.072965
883.5 8.062904
884 8.032697
884.5 8.139922
885 8.028603
885.5 8.160601
886 8.049868
886.5 8.24604
887 8.051983
887.5 8.13902
888 8.17131
888.5 8.176471
889 8.268082
889.5 8.090227
890 8.259622
890.5 8.028267
891 8.267092
891.5 8.100586
892 8.280671
892.5 8.14419
893 8.246938
893.5 8.306725
894 8.262431
894.5 8.281864
895 8.116882
895.5 8.411354
896 8.341946
896.5 8.373499
897 8.224085
897.5 8.429755
898 8.340366
898.5 8.417571
899 8.361999
899.5 8.333202
900 8.554781
900.5 8.404315
901 8.536697
901.5 8.370014
902 8.54513
902.5 8.414337
903 8.528835
903.5 8.46484
904 8.363521
904.5 8.510719
905 8.507437
905.5 8.573169
906 8.348039
906.5 8.641452
907 8.484036
907.5 8.625062
908 8.512264
908.5 8.632622
909 8.541826
909.5 8.632734
910 8.637507
910.5 8.593833
911 8.675993
911.5 8.553688
912 8.762532
912.5 8.592481
913 8.742873
913.5 8.652979
914 8.680622
914.5 8.630446
915 8.653981
915.5 8.691348
916 8.614475
916.5 8.750101
917 8.527273
917.5 8.848221
918 8.53167
918.5 8.876679
919 8.650204
919.5 8.754519
920 8.813721
920.5 8.753774
921 8.858191
921.5 8.768639
922 8.871092
922.5 8.666581
923 8.907428
923.5 8.813833
924 8.916527
924.5 8.823342
925 8.903565
925.5 8.913335
926 8.854448
926.5 9.024803
927 8.790188
927.5 9.031134
928 8.82181
928.5 8.952622
929 8.839596
929.5 9.002633
930 8.979503
930.5 8.921354
931 8.949543
931.5 8.796232
932 9.070748
932.5 8.931081
933 9.058757
933.5 8.869384
934 9.096266
934.5 8.921334
935 9.107457
935.5 8.961476
936 8.992824
936.5 9.019079
937 9.046581
937.5 9.143534
938 8.977257
938.5 9.094024
939 8.953085
939.5 9.109694
940 9.043897
940.5 9.008068
941 9.146766
941.5 9.112476
942 9.133118
942.5 9.001402
943 9.239292
943.5 8.944176
944 9.206358
944.5 9.027795
945 9.231942
945.5 9.057792
946 9.115197
946.5 9.187029
947 9.125189
947.5 9.210338
948 9.070598
948.5 9.164302
949 9.035176
949.5 9.257817
950 9.077032
950.5 9.2765
951 9.188764
951.5 9.157141
952 9.246264
952.5 9.124384
953 9.283712
953.5 9.094966
954 9.260679
954.5 9.111477
955 9.270042
955.5 9.161989
956 9.225868
956.5 9.201889
957 9.126879
957.5 9.273141
958 9.228671
958.5 9.266129
959 9.05651
959.5 9.339892
960 9.193911
960.5 9.272279
961 9.168096
961.5 9.274119
962 9.308927
962.5 9.237169
963 9.301356
963.5 9.221347
964 9.336647
964.5 9.184493
965 9.337259
965.5 9.235609
966 9.322572
966.5 9.351888
967 9.353399
967.5 9.291513
968 9.173057
968.5 9.36636
969 9.175593
969.5 9.370831
970 9.068266
970.5 9.360087
971 9.162969
971.5 9.351948
972 9.264308
972.5 9.325679
973 9.259953
973.5 9.337153
974 9.376086
974.5 9.297
975 9.36944
975.5 9.215544
976 9.429941
976.5 9.309854
977 9.302615
977.5 9.332088
978 9.363256
978.5 9.313503
979 9.215254
979.5 9.4242
980 9.175708
980.5 9.439654
981 9.200584
981.5 9.422175
982 9.199453
982.5 9.324609
983 9.355527
983.5 9.299093
984 9.36507
984.5 9.139542
985 9.390899
985.5 9.297606
986 9.379932
986.5 9.279312
987 9.378146
987.5 9.240418
988 9.420584
988.5 9.3606
989 9.338351
989.5 9.423103
990 9.340853
990.5 9.411645
991 9.177592
991.5 9.403329
992 9.251596
992.5 9.332225
993 9.24055
993.5 9.24421
994 9.366997
994.5 9.355254
995 9.337761
995.5 9.209031
996 9.409815
996.5 9.200885
997 9.403048
997.5 9.223135
998 9.342712
998.5 9.289801
999 9.270816
999.5 9.39048
1000 9.334209
1000.5 9.385488
1001 9.231363
1001.5 9.393524
1002 9.230703
1002.5 9.371236
1003 9.259495
1003.5 9.311848
1004 9.320791
1004.5 9.276207
1005 9.390899
1005.5 9.178323
1006 9.356595
1006.5 9.195197
1007 9.443153
1007.5 9.141268
1008 9.344943
1008.5 9.22227
1009 9.248545
1009.5 9.187402
1010 9.219214
1010.5 9.332649
1011 9.24319
1011.5 9.395406
1012 9.174976
1012.5 9.331242
1013 9.292803
1013.5 9.356992
1014 9.289172
1014.5 9.242583
1015 9.31918
1015.5 9.25785
1016 9.444775
1016.5 9.144574
1017 9.361374
1017.5 9.121549
1018 9.231113
1018.5 9.131049
1019 9.264433
1019.5 9.232794
1020 9.243821
1020.5 9.279803
1021 9.043167
1021.5 9.32778
1022 9.169196
1022.5 9.240514
1023 9.114338
1023.5 9.390534
1024 9.185804
1024.5 9.290576
1025 9.21962
1025.5 9.23492
1026 9.268491
1026.5 9.220669
1027 9.247515
1027.5 9.182226
1028 9.318559
1028.5 9.183423
1029 9.289066
1029.5 9.192567
1030 9.259076
1030.5 9.271378
1031 9.240533
1031.5 9.165953
1032 9.005053
1032.5 9.308838
1033 9.071184
1033.5 9.244692
1034 9.01747
1034.5 9.197523
1035 9.037323
1035.5 9.167673
1036 9.225287
1036.5 9.216699
1037 9.284646
1037.5 9.031995
1038 9.255512
1038.5 9.11927
1039 9.230211
1039.5 9.050934
1040 9.220785
1040.5 9.148372
1041 9.140731
1041.5 9.248222
1042 9.076641
1042.5 9.293607
1043 9.055149
1043.5 9.210099
1044 9.004962
1044.5 9.167905
1045 9.027932
1045.5 9.144503
1046 9.081613
1046.5 9.008737
1047 9.174321
1047.5 9.108829
1048 9.201559
1048.5 9.016572
1049 9.170049
1049.5 9.015777
1050 9.133755
1050.5 8.984543
1051 9.093001
1051.5 9.165888
1052 9.090957
1052.5 9.175709
1053 9.04019
1053.5 9.234554
1054 9.084157
1054.5 9.173764
1055 8.985191
1055.5 9.017821
1056 9.028801
1056.5 9.035607
1057 9.072268
1057.5 8.970079
1058 9.146195
1058.5 9.008299
1059 9.102419
1059.5 8.911229
1060 9.20288
1060.5 8.986083
1061 9.177608
1061.5 9.054936
1062 9.089625
1062.5 9.056316
1063 8.991072
1063.5 9.097309
1064 8.935211
1064.5 9.048523
1065 8.843555
1065.5 8.93239
1066 8.922812
1066.5 8.984398
1067 9.073696
1067.5 9.045882
1068 9.19217
1068.5 8.929501
1069 9.044873
1069.5 8.8897
1070 9.040038
1070.5 8.874707
1071 8.994891
1071.5 8.831213
1072 9.025425
1072.5 8.960569
1073 8.956573
1073.5 9.048097
1074 8.894984
1074.5 9.06162
1075 8.969371
1075.5 9.074289
1076 8.880585
1076.5 8.965706
1077 8.936531
1077.5 9.018967
1078 9.025843
1078.5 8.940332
1079 9.100433
1079.5 8.833498
1080 8.957281
1080.5 8.828506
1081 8.983117
1081.5 8.910505
1082 9.003794
1082.5 8.869782
1083 8.802048
1083.5 8.970656
1084 8.859956
1084.5 8.92299
1085 8.746705
1085.5 9.047652
1086 8.918156
1086.5 8.988444
1087 8.877644
1087.5 8.917318
1088 8.930518
1088.5 8.885866
1089 8.918118
1089.5 8.833872
1090 8.906378
1090.5 8.761391
1091 9.006867
1091.5 8.849129
1092 8.94856
1092.5 8.916492
1093 8.892625
1093.5 8.859237
1094 8.844116
1094.5 8.914382
1095 8.750785
1095.5 8.925997
1096 8.616686
1096.5 8.922121
1097 8.792943
1097.5 8.986002
1098 8.833402
1098.5 8.852864
1099 8.875934
1099.5 8.789691
1100 8.872274
1100.5 8.734987
1101 8.867656
1101.5 8.772133
1102 8.924718
1102.5 8.727229
1103 8.839059
1103.5 8.86365
1104 8.884738
1104.5 8.906713
1105 8.722235
1105.5 8.938797
1106 8.698828
1106.5 8.921873
1107 8.760116
1107.5 8.862457
1108 8.781532
1108.5 8.766114
1109 8.776339
1109.5 8.75834
1110 8.77376
1110.5 8.657686
1111 8.921538
1111.5 8.806314
1112 8.904556
1112.5 8.722037
1113 8.893796
1113.5 8.801398
1114 8.820179
1114.5 8.853418
1115 8.7927
1115.5 8.873362
1116 8.740253
1116.5 8.867852
1117 8.719207
1117.5 8.888591
1118 8.798941
1118.5 8.870739
1119 8.781832
1119.5 8.723705
1120 8.797956
1120.5 8.77005
1121 8.834397
1121.5 8.635536
1122 8.888642
1122.5 8.649406
1123 8.893616
1123.5 8.736488
1124 8.824838
1124.5 8.779836
1125 8.866652
1125.5 8.854847
1126 8.719426
1126.5 8.806548
1127 8.668906
1127.5 8.831818
1128 8.689672
1128.5 8.793409
1129 8.790471
1129.5 8.834442
1130 8.792721
1130.5 8.633485
1131 8.82621
1131.5 8.612084
1132 8.777895
1132.5 8.457299
1133 8.658408
1133.5 8.513056
1134 8.747204
1134.5 8.728348
1135 8.833317
1135.5 8.830906
1136 8.733004
1136.5 8.806164
1137 8.722529
1137.5 8.83114
1138 8.638389
1138.5 8.848422
1139 8.710486
1139.5 8.740536
1140 8.757522
1140.5 8.703961
1141 8.82275
1141.5 8.635417
1142 8.833961
1142.5 8.508437
1143 8.727302
1143.5 8.619697
1144 8.763856
1144.5 8.602206
1145 8.72608
1145.5 8.787932
1146 8.746397
1146.5 8.790133
1147 8.585802
1147.5 8.82621
1148 8.637651
1148.5 8.776929
1149 8.592401
1149.5 8.847111
1150 8.705541
1150.5 8.707591
1151 8.675899
1151.5 8.645441
1152 8.801481
1152.5 8.660782
1153 8.748424
1153.5 8.721721
1154 8.85066
1154.5 8.733452
1155 8.736846
1155.5 8.701865
1156 8.714305
1156.5 8.793043
1157 8.773484
1157.5 8.762582
1158 8.461265
1158.5 8.814441
1159 8.624095
1159.5 8.819512
1160 8.64652
1160.5 8.812456
1161 8.696898
1161.5 8.795738
1162 8.758181
1162.5 8.73459
1163 8.833163
1163.5 8.680461
1164 8.881243
1164.5 8.717104
1165 8.789796
1165.5 8.654606
1166 8.794741
1166.5 8.748841
1167 8.674747
1167.5 8.813997
1168 8.68431
1168.5 8.884209
1169 8.555502
1169.5 8.759911
1170 8.641799
1170.5 8.739141
1171 8.679141
1171.5 8.710674
1172 8.736641
1172.5 8.614711
1173 8.757955
1173.5 8.709772
1174 8.826308
1174.5 8.599295
1175 8.845326
1175.5 8.699038
1176 8.752194
1176.5 8.747393
1177 8.72667
1177.5 8.766947
1178 8.689196
1178.5 8.835823
1179 8.668553
1179.5 8.866719
1180 8.672857
1180.5 8.770082
1181 8.656821
1181.5 8.738734
1182 8.778507
1182.5 8.701085
1183 8.757634
1183.5 8.588044
1184 8.802715
1184.5 8.625136
1185 8.78889
1185.5 8.604436
1186 8.861037
1186.5 8.681781
1187 8.753473
1187.5 8.711884
1188 8.655491
1188.5 8.66648
1189 8.560964
1189.5 8.656739
1190 8.47363
1190.5 8.762302
1191 8.737067
1191.5 8.82126
1192 8.715592
1192.5 8.892389
1193 8.722629
1193.5 8.812808
1194 8.705109
1194.5 8.835988
1195 8.736336
1195.5 8.728213
1196 8.870081
1196.5 8.764499
1197 8.839741
1197.5 8.640626
1198 8.859856
1198.5 8.567504
1199 8.848563
1199.5 8.714116
1200 8.826477
1200.5 8.774209
1201 8.722267
1201.5 8.828743
1202 8.722373
1202.5 8.878286
1203 8.61509
1203.5 8.922786
1204 8.814657
1204.5 8.868446
1205 8.778813
1205.5 8.829577
1206 8.915841
1206.5 8.768045
1207 8.949996
1207.5 8.735251
1208 8.942215
1208.5 8.724175
1209 8.879068
1209.5 8.705647
1210 8.85649
1210.5 8.862708
1211 8.862965
1211.5 8.830141
1212 8.645963
1212.5 8.953168
1213 8.850735
1213.5 8.882079
1214 8.719166
1214.5 8.944994
1215 8.841136
1215.5 8.918305
1216 8.840305
1216.5 8.867083
1217 8.923371
1217.5 8.871836
1218 8.986176
1218.5 8.793724
1219 8.965389
1219.5 8.866082
1220 8.901631
1220.5 8.867722
1221 8.874674
1221.5 8.891012
1222 8.880848
1222.5 8.914413
1223 8.755004
1223.5 8.976143
1224 8.742344
1224.5 8.965315
1225 8.780406
1225.5 9.019412
1226 8.858383
1226.5 9.024233
1227 8.931871
1227.5 8.862189
1228 8.974637
1228.5 8.8846
1229 8.9656
1229.5 8.875877
1230 8.998284
1230.5 8.920034
1231 8.996584
1231.5 8.976596
1232 8.927622
1232.5 9.103826
1233 8.919577
1233.5 9.055268
1234 8.816036
1234.5 9.046253
1235 8.832987
1235.5 9.033422
1236 8.854411
1236.5 8.924794
1237 8.899534
1237.5 8.846229
1238 8.932644
1238.5 8.894206
1239 8.990963
1239.5 8.846116
1240 9.12246
1240.5 8.941957
1241 9.048561
1241.5 9.035281
1242 9.005946
1242.5 9.106699
1243 8.936592
1243.5 9.108802
1244 8.878314
1244.5 9.142675
1245 8.982667
1245.5 9.000494
1246 8.909825
1246.5 9.068035
1247 9.075622
1247.5 9.052331
1248 9.059034
1248.5 8.909953
1249 9.151611
1249.5 9.020394
1250 9.116451
1250.5 8.926121
1251 9.111501
1251.5 8.993363
1252 9.144509
1252.5 9.039081
1253 9.033411
1253.5 9.171868
1254 9.086309
1254.5 9.182017
1255 8.985238
1255.5 9.148736
1256 9.004605
1256.5 9.170971
1257 8.966699
1257.5 9.032337
1258 9.165317
1258.5 9.065603
1259 9.204071
1259.5 8.990422
1260 9.187052
1260.5 8.993266
1261 9.211029
1261.5 9.020922
1262 9.18371
1262.5 9.071837
1263 9.192871
1263.5 9.164541
1264 9.128795
1264.5 9.229712
1265 9.083151
1265.5 9.25549
1266 9.140877
1266.5 9.282808
1267 9.158116
1267.5 9.247266
1268 9.22209
1268.5 9.196445
1269 9.37266
1269.5 9.09711
1270 9.304535
1270.5 9.092231
1271 9.263131
1271.5 9.060627
1272 9.35912
1272.5 9.179535
1273 9.263396
1273.5 9.259973
1274 9.129419
1274.5 9.343179
1275 9.239275
1275.5 9.308804
1276 9.126037
1276.5 9.382147
1277 9.2049
1277.5 9.319986
1278 9.29224
1278.5 9.28616
1279 9.40023
1279.5 9.282139
1280 9.368331
1280.5 9.24135
1281 9.415918
1281.5 9.295616
1282 9.339457
1282.5 9.25557
1283 9.330963
1283.5 9.343606
1284 9.333243
1284.5 9.390717
1285 9.179612
1285.5 9.408764
1286 9.282247
1286.5 9.417096
1287 9.226859
1287.5 9.426668
1288 9.331287
1288.5 9.432668
1289 9.39723
1289.5 9.334677
1290 9.489198
1290.5 9.376371
1291 9.471639
1291.5 9.348385
1292 9.507209
1292.5 9.400883
1293 9.458886
1293.5 9.395776
1294 9.405755
1294.5 9.499977
1295 9.393016
1295.5 9.474014
1296 9.299077
1296.5 9.513443
1297 9.297759
1297.5 9.545572
1298 9.396468
1298.5 9.515436
1299 9.429006
1299.5 9.468735
1300 9.509739
1300.5 9.370115
1301 9.559824
1301.5 9.373581
1302 9.647459
1302.5 9.52467
1303 9.560122
1303.5 9.522032
1304 9.561748
1304.5 9.578022
1305 9.445411
1305.5 9.648605
1306 9.437194
1306.5 9.674302
1307 9.42973
1307.5 9.658029
1308 9.458955
1308.5 9.596933
1309 9.565593
1309.5 9.639895
1310 9.581652
1310.5 9.402682
1311 9.6543
1311.5 9.592478
1312 9.666832
1312.5 9.51422
1313 9.776576
1313.5 9.677418
1314 9.765435
1314.5 9.756439
1315 9.72519
1315.5 9.879581
1316 9.715942
1316.5 9.710369
1317 9.596463
1317.5 9.760085
1318 9.621429
1318.5 9.736658
1319 9.717911
1319.5 9.653617
1320 9.749151
1320.5 9.742857
1321 9.67341
1321.5 9.577093
1322 9.762131
1322.5 9.577648
1323 9.77977
1323.5 9.601961
1324 9.721655
1324.5 9.682623
1325 9.819117
1325.5 9.764731
1326 9.777048
1326.5 9.788714
1327 9.71953
1327.5 9.895147
1328 9.72153
1328.5 9.827077
1329 9.783073
1329.5 9.860449
1330 9.775588
1330.5 9.746155
1331 9.923083
1331.5 9.768435
1332 9.901768
1332.5 9.693131
1333 9.936339
1333.5 9.677224
1334 9.996025
1334.5 9.75422
1335 9.865061
1335.5 9.882462
1336 9.846354
1336.5 9.91559
1337 9.881236
1337.5 10.01192
1338 9.769405
1338.5 10.05365
1339 9.972866
1339.5 10.06552
1340 10.013551
1340.5 10.032948
1341 10.103911
1341.5 9.953688
1342 10.202445
1342.5 9.964708
1343 10.148995
1343.5 9.896684
1344 10.00485
1344.5 9.932986
1345 9.975206
1345.5 9.972297
1346 9.935408
1346.5 10.010024
1347 9.868678
1347.5 10.249625
1348 10.114174
1348.5 10.235511
1349 9.997575
1349.5 10.114679
1350 10.039486
1350.5 10.148314
1351 10.071731
1351.5 10.03177
1352 10.081885
1352.5 10.095204
1353 10.142769
1353.5 10.009304
1354 10.090605
1354.5 10.125873
1355 10.29958
1355.5 10.196072
1356 10.15824
1356.5 10.229585
1357 10.299748
1357.5 10.286155
1358 10.034611
1358.5 10.175333
1359 10.106945
1359.5 10.329714
1360 10.083838
1360.5 10.03956
1361 10.009535
1361.5 10.322478
1362 10.459346
1362.5 10.579871
1363 10.374353
1363.5 9.96178
1364 10.208254
1364.5 10.366336
1365 10.580518
1365.5 10.449298
1366 10.28831
1366.5 10.185851
1367 10.139306
1367.5 10.379037
1368 10.315221
1368.5 10.482368
1369 10.15005
1369.5 10.30227
1370 10.014434
1370.5 10.461421
1371 10.395709
1371.5 10.505609
1372 10.446569
1372.5 10.355211
1373 10.543789
1373.5 10.382486
1374 10.438512
1374.5 10.311373
1375 10.482868
1375.5 10.325794
1376 10.486187
1376.5 10.527499
1377 10.486249
1377.5 10.412959
1378 10.417152
1378.5 10.719793
1379 10.47319
1379.5 10.419225
1380 10.340681
1380.5 10.692236
1381 10.530964
1381.5 10.284258
1382 10.261445
1382.5 10.712034
1383 10.719184
1383.5 10.398096
1384 10.544913
1384.5 10.487694
1385 10.776293
1385.5 10.632413
1386 10.738795
1386.5 10.417493
1387 10.43693
1387.5 10.597473
1388 10.760378
1388.5 10.859004
1389 10.628891
1389.5 10.792874
1390 10.63778
1390.5 10.728216
1391 10.479575
1391.5 10.506395
1392 10.68787
1392.5 10.8996
1393 10.817996
1393.5 10.577539
1394 10.612199
1394.5 10.449966
1395 10.855562
1395.5 10.5451
1396 10.976016
1396.5 10.86515
1397 10.948019
1397.5 10.703555
1398 10.686544
1398.5 10.710444
1399 10.551208
1399.5 10.695978
1400 10.660321
1400.5 11.064899
1401 10.972721
1401.5 11.071497
1402 10.849513
1402.5 10.875808
1403 10.865406
1403.5 10.728113
1404 10.785533
1404.5 10.783345
1405 11.216521
1405.5 10.996383
1406 10.849813
1406.5 10.745242
1407 11.080641
1407.5 10.99365
1408 10.834104
1408.5 10.792085
1409 10.903129
1409.5 11.251882
1410 11.083492
1410.5 11.073288
1411 10.797235
1411.5 11.073741
1412 10.91846
1412.5 11.024156
1413 10.863075
1413.5 10.992717
1414 11.193401
1414.5 11.195665
1415 11.290944
1415.5 11.070915
1416 11.194961
1416.5 10.987092
1417 11.031999
1417.5 10.931687
1418 11.003427
1418.5 11.090441
1419 11.26986
1419.5 11.242207
1420 11.010145
1420.5 11.218378
1421 11.018626
1421.5 11.136288
1422 10.990292
1422.5 11.235872
1423 11.160307
1423.5 11.360465
1424 11.315249
1424.5 11.288438
1425 11.334631
1425.5 11.230314
1426 11.378224
1426.5 11.202502
1427 11.30314
1427.5 11.222181
1428 11.404067
1428.5 11.303742
1429 11.234976
1429.5 11.380223
1430 11.141334
1430.5 11.37416
1431 11.187863
1431.5 11.490104
1432 11.245704
1432.5 11.437976
1433 11.243387
1433.5 11.392784
1434 11.343479
1434.5 11.308677
1435 11.470599
1435.5 11.35917
1436 11.473799
1436.5 11.222976
1437 11.591822
1437.5 11.480952
1438 11.570915
1438.5 11.451792
1439 11.575692
1439.5 11.597586
1440 11.465043
1440.5 11.580792
1441 11.397846
1441.5 11.6533
1442 11.456037
1442.5 11.543466
1443 11.395469
1443.5 11.440459
1444 11.455807
1444.5 11.456595
1445 11.606024
1445.5 11.471938
1446 11.80054
1446.5 11.67575
1447 11.757673
1447.5 11.626799
1448 11.840895
1448.5 11.716685
1449 11.660098
1449.5 11.617915
1450 11.717946
1450.5 11.856266
1451 11.719422
1451.5 11.755055
1452 11.667839
1452.5 11.783247
1453 11.696862
1453.5 11.800821
1454 11.673053
1454.5 11.706114
1455 11.875779
1455.5 11.786455
1456 11.818482
1456.5 11.56854
1457 11.864296
1457.5 11.712042
1458 11.852079
1458.5 11.702304
1459 11.875106
1459.5 11.870769
1460 11.902558
1460.5 11.913919
1461 11.833429
1461.5 11.951619
1462 11.823992
1462.5 11.982904
1463 11.909533
1463.5 12.003247
1464 11.895092
1464.5 12.051999
1465 12.002888
1465.5 11.950212
1466 12.072166
1466.5 11.98712
1467 12.235568
1467.5 12.003453
1468 12.184486
1468.5 11.802723
1469 12.053682
1469.5 12.097183
1470 12.068349
1470.5 12.06085
1471 12.014776
1471.5 12.140897
1472 12.030578
1472.5 12.229507
1473 12.019157
1473.5 12.212516
1474 12.047489
1474.5 12.142336
1475 12.15899
1475.5 12.136107
1476 12.20545
1476.5 12.127682
1477 12.298113
1477.5 12.185668
1478 12.356553
1478.5 12.154646
1479 12.294635
1479.5 12.210555
1480 12.25825
1480.5 12.365202
1481 12.348391
1481.5 12.346132
1482 12.161359
1482.5 12.447398
1483 12.320496
1483.5 12.497149
1484 12.336602
1484.5 12.616676
1485 12.420752
1485.5 12.43763
1486 12.359339
1486.5 12.354462
1487 12.406777
1487.5 12.380943
1488 12.527171
1488.5 12.381552
1489 12.534192
1489.5 12.425286
1490 12.494317
1490.5 12.494459
1491 12.469853
1491.5 12.617044
1492 12.499001
1492.5 12.581013
1493 12.353574
1493.5 12.694101
1494 12.433234
1494.5 12.714244
1495 12.514971
1495.5 12.652604
1496 12.645827
1496.5 12.671497
1497 12.734325
1497.5 12.686828
1498 12.836894
1498.5 12.659694
1499 12.724726
1499.5 12.609965
1500 12.776285
1500.5 12.707944
1501 12.725227
1501.5 12.782925
1502 12.634124
1502.5 12.80316
1503 12.595084
1503.5 12.857211
1504 12.655565
1504.5 12.862858
1505 12.652245
1505.5 12.860236
1506 12.809274
1506.5 12.849765
1507 12.904236
1507.5 12.721974
1508 12.996164
1508.5 12.903115
1509 13.022767
1509.5 12.895282
1510 13.005286
1510.5 12.852886
1511 12.964967
1511.5 12.946416
1512 12.90209
1512.5 13.024828
1513 12.954026
1513.5 13.091144
1514 12.904
1514.5 13.105893
1515 12.934236
1515.5 13.045581
1516 12.944989
1516.5 12.993495
1517 13.100803
1517.5 13.099217
1518 13.164912
1518.5 12.986967
1519 13.232441
1519.5 13.029133
1520 13.276309
1520.5 13.055587
1521 13.266043
1521.5 13.153411
1522 13.320351
1522.5 13.194555
1523 13.129632
1523.5 13.264728
1524 13.120329
1524.5 13.249533
1525 13.167554
1525.5 13.310517
1526 13.209112
1526.5 13.31498
1527 13.244769
1527.5 13.202719
1528 13.283178
1528.5 13.253547
1529 13.387331
1529.5 13.209577
1530 13.461624
1530.5 13.143399
1531 13.438296
1531.5 13.294166
1532 13.530856
1532.5 13.405408
1533 13.461021
1533.5 13.497227
1534 13.503841
1534.5 13.651429
1535 13.492456
1535.5 13.589494
1536 13.479775
1536.5 13.573685
1537 13.470447
1537.5 13.527007
1538 13.570938
1538.5 13.421924
1539 13.606717
1539.5 13.450307
1540 13.706754
1540.5 13.516919
1541 13.642196
1541.5 13.473989
1542 13.635774
1542.5 13.675267
1543 13.60161
1543.5 13.693094
1544 13.565649
1544.5 13.790561
1545 13.741297
1545.5 13.733225
1546 13.552591
1546.5 13.795589
1547 13.736871
1547.5 13.759188
1548 13.738115
1548.5 13.717821
1549 13.799806
1549.5 13.779916
1550 13.812599
1550.5 13.713525
1551 13.886747
1551.5 13.781367
1552 13.919668
1552.5 13.825807
1553 13.884971
1553.5 14.023654
1554 14.002927
1554.5 13.991369
1555 13.733628
1555.5 13.981074
1556 13.779753
1556.5 14.005953
1557 13.813108
1557.5 14.021747
1558 13.904963
1558.5 14.040697
1559 14.03061
1559.5 13.902959
1560 14.050791
1560.5 13.936269
1561 14.106467
1561.5 13.963321
1562 14.185753
1562.5 14.060138
1563 14.168994
1563.5 14.174061
1564 14.111193
1564.5 14.252512
1565 14.194515
1565.5 14.354691
1566 14.190876
1566.5 14.269434
1567 13.991527
1567.5 14.225668
1568 14.140365
1568.5 14.239357
1569 14.250217
1569.5 14.161664
1570 14.261392
1570.5 14.238302
1571 14.39186
1571.5 14.12853
1572 14.346141
1572.5 14.316018
1573 14.295645
1573.5 14.303441
1574 14.349896
1574.5 14.445625
1575 14.338662
1575.5 14.556845
1576 14.356901
1576.5 14.585263
1577 14.46794
1577.5 14.539357
1578 14.285858
1578.5 14.365676
1579 14.45321
1579.5 14.439653
1580 14.473476
1580.5 14.257739
1581 14.592189
1581.5 14.451273
1582 14.57395
1582.5 14.416718
1583 14.658165
1583.5 14.535619
1584 14.652668
1584.5 14.628093
1585 14.66056
1585.5 14.786659
1586 14.674331
1586.5 14.729971
1587 14.558309
1587.5 14.71004
1588 14.63117
1588.5 14.694619
1589 14.629053
1589.5 14.579368
1590 14.706576
1590.5 14.70121
1591 14.787899
1591.5 14.589979
1592 14.835154
1592.5 14.610821
1593 14.835596
1593.5 14.683075
1594 14.818434
1594.5 14.770012
1595 14.878054
1595.5 14.921631
1596 14.854032
1596.5 15.075336
1597 14.855608
1597.5 15.12863
1598 14.960659
1598.5 14.976688
1599 14.922249
1599.5 15.041523
1600 14.920117
1600.5 14.881881
1601 15.010266
1601.5 14.899839
1602 15.050176
1602.5 14.895159
1603 15.101938
1603.5 14.962618
1604 15.159871
1604.5 15.030545
1605 15.103902
1605.5 15.16864
1606 14.954183
1606.5 15.301585
1607 15.099327
1607.5 15.170565
1608 15.075119
1608.5 15.263456
1609 15.095188
1609.5 15.230516
1610 15.166417
1610.5 15.199696
1611 15.317684
1611.5 15.16932
1612 15.345609
1612.5 15.141346
1613 15.367323
1613.5 15.188356
1614 15.363052
1614.5 15.284634
1615 15.313061
1615.5 15.430176
1616 15.333952
1616.5 15.326969
1617 15.177351
1617.5 15.396444
1618 15.305735
1618.5 15.419742
1619 15.315545
1619.5 15.4908
1620 15.347026
1620.5 15.424798
1621 15.468809
1621.5 15.437657
1622 15.549961
1622.5 15.457432
1623 15.580547
1623.5 15.412633
1624 15.61193
1624.5 15.529351
1625 15.607357
1625.5 15.592201
1626 15.526983
1626.5 15.721719
1627 15.66256
1627.5 15.819967
1628 15.490918
1628.5 15.654278
1629 15.477037
1629.5 15.724897
1630 15.610173
1630.5 15.700804
1631 15.666413
1631.5 15.684617
1632 15.709279
1632.5 15.627106
1633 15.822752
1633.5 15.612276
1634 15.829876
1634.5 15.686165
1635 15.785176
1635.5 15.786383
1636 15.836258
1636.5 15.909702
1637 15.768838
1637.5 15.959768
1638 15.774457
1638.5 16.013996
1639 15.830779
1639.5 16.065246
1640 15.880865
1640.5 15.919597
1641 15.881881
1641.5 15.899628
1642 15.977618
1642.5 15.829799
1643 16.0863
1643.5 16.011904
1644 16.070817
1644.5 15.996048
1645 16.058303
1645.5 16.062281
1646 16.070533
1646.5 16.104971
1647 16.085936
1647.5 16.186127
1648 16.070423
1648.5 16.2459
1649 16.011404
1649.5 16.168767
1650 16.099332
1650.5 16.152546
1651 16.106002
1651.5 16.087176
1652 16.234529
1652.5 16.166694
1653 16.234075
1653.5 16.086484
1654 16.351584
1654.5 16.178213
1655 16.38467
1655.5 16.243044
1656 16.351061
1656.5 16.28004
1657 16.306797
1657.5 16.379322
1658 16.292243
1658.5 16.417961
1659 16.261339
1659.5 16.404675
1660 16.290961
1660.5 16.372086
1661 16.376781
1661.5 16.428192
1662 16.386051
1662.5 16.342087
1663 16.490558
1663.5 16.391522
1664 16.51378
1664.5 16.307876
1665 16.59698
1665.5 16.45821
1666 16.667315
1666.5 16.468655
1667 16.517733
1667.5 16.459477
1668 16.421017
1668.5 16.566403
1669 16.370942
1669.5 16.557987
1670 16.276167
1670.5 16.634206
1671 16.617364
1671.5 16.58088
1672 16.651802
1672.5 16.450012
1673 16.712426
1673.5 16.618539
1674 16.731396
1674.5 16.656104
1675 16.810891
1675.5 16.735625
1676 16.838793
1676.5 16.912299
1677 16.719149
1677.5 16.879739
1678 16.639295
1678.5 16.813755
1679 16.685325
1679.5 16.827357
1680 16.74608
1680.5 16.908436
1681 16.890019
1681.5 16.826773
1682 16.956152
1682.5 16.817421
1683 16.872673
1683.5 16.733696
1684 16.914278
1684.5 16.787605
1685 16.958015
1685.5 16.816476
1686 16.943839
1686.5 17.004122
1687 16.920634
1687.5 17.073466
1688 16.991298
1688.5 17.195348
1689 17.110184
1689.5 17.23007
1690 16.971269
1690.5 17.017111
1691 17.056118
1691.5 17.079574
1692 17.054187
1692.5 16.935906
1693 17.15609
1693.5 17.014886
1694 17.247187
1694.5 17.022054
1695 17.187402
1695.5 16.965386
1696 17.194004
1696.5 17.089888
1697 17.197241
1697.5 17.284507
1698 17.100331
1698.5 17.257476
1699 17.180179
1699.5 17.30822
1700 17.144652
1700.5 17.302127
1701 17.300352
1701.5 17.31405
1702 17.416906
1702.5 17.403416
1703 17.559876
1703.5 17.335664
1704 17.457315
1704.5 17.188978
1705 17.43647
1705.5 17.272446
1706 17.405872
1706.5 17.328182
1707 17.408183
1707.5 17.43719
1708 17.348772
1708.5 17.497396
1709 17.268066
1709.5 17.566054
1710 17.453951
1710.5 17.577869
1711 17.520961
1711.5 17.644066
1712 17.61874
1712.5 17.534985
1713 17.697366
1713.5 17.443736
1714 17.642166
1714.5 17.531408
1715 17.683738
1715.5 17.489162
1716 17.647316
1716.5 17.609549
1717 17.679745
1717.5 17.65078
1718 17.542869
1718.5 17.755777
1719 17.684083
1719.5 17.778488
1720 17.549071
1720.5 17.835388
1721 17.707166
1721.5 17.787959
1722 17.761371
1722.5 17.76033
1723 17.882289
1723.5 17.816168
1724 17.964835
1724.5 17.816353
1725 17.917006
1725.5 17.877924
1726 17.976423
1726.5 17.845263
1727 17.955828
1727.5 18.086654
1728 18.04087
1728.5 17.963652
1729 17.758568
1729.5 18.030511
1730 17.818195
1730.5 18.0507
1731 17.850617
1731.5 18.012032
1732 17.922087
1732.5 18.038061
1733 18.074605
1733.5 18.012086
1734 18.103254
1734.5 17.962699
1735 18.138713
1735.5 17.996483
1736 18.160856
1736.5 18.111317
1737 18.181629
1737.5 18.116696
1738 18.05613
1738.5 18.182462
1739 18.113062
1739.5 18.267782
1740 18.006209
1740.5 18.241291
1741 18.037966
1741.5 18.318342
1742 18.180072
1742.5 18.172222
1743 18.210751
1743.5 18.163088
1744 18.305674
1744.5 18.21025
1745 18.371584
1745.5 18.14786
1746 18.419997
1746.5 18.325268
1747 18.380429
1747.5 18.359528
1748 18.357675
1748.5 18.469049
1749 18.376569
1749.5 18.490225
1750 18.312274
1750.5 18.49934
1751 18.368095
1751.5 18.560845
1752 18.400757
1752.5 18.514308
1753 18.61617
1753.5 18.513642
1754 18.46368
1754.5 18.280187
1755 18.551199
1755.5 18.477704
1756 18.597539
1756.5 18.444952
1757 18.625331
1757.5 18.533109
1758 18.592848
1758.5 18.576929
1759 18.552031
1759.5 18.684258
1760 18.583663
1760.5 18.742462
1761 18.58716
1761.5 18.745828
1762 18.642083
1762.5 18.754272
1763 18.639506
1763.5 18.595956
1764 18.726508
1764.5 18.725166
1765 18.806382
1765.5 18.619061
1766 18.911624
1766.5 18.701842
1767 18.933704
1767.5 18.765451
1768 18.963298
1768.5 18.913403
1769 18.86927
1769.5 18.854895
1770 18.834051
1770.5 18.960981
1771 18.851295
1771.5 18.986915
1772 18.802758
1772.5 18.968312
1773 18.931164
1773.5 18.931423
1774 18.903325
1774.5 18.830518
1775 19.015218
1775.5 18.800156
1776 19.079439
1776.5 18.754975
1777 18.997456
1777.5 18.773276
1778 19.073541
1778.5 18.967174
1779 19.056244
1779.5 19.098713
1780 18.920714
1780.5 19.217651
1781 19.082336
1781.5 19.23259
1782 18.990803
1782.5 19.25476
1783 19.165367
1783.5 19.174534
1784 19.199722
1784.5 19.208696
1785 19.308047
1785.5 19.133678
1786 19.348502
1786.5 19.142155
1787 19.332729
1787.5 19.179079
1788 19.347157
1788.5 19.23455
1789 19.242269
1789.5 19.315156
1790 19.257925
1790.5 19.33409
1791 19.051975
1791.5 19.462228
1792 19.302014
1792.5 19.469911
1793 19.259632
1793.5 19.483724
1794 19.407322
1794.5 19.442274
1795 19.463255
1795.5 19.38356
1796 19.55854
1796.5 19.411024
1797 19.535549
1797.5 19.36007
1798 19.46597
1798.5 19.390433
1799 19.431147
1799.5 19.427705
1800 19.48178
1800.5 19.588387
1801 19.507897
1801.5 19.62187
1802 19.437751
1802.5 19.733812
1803 19.469115
1803.5 19.69339
1804 19.54179
1804.5 19.540222
1805 19.561836
1805.5 19.631732
1806 19.83836
1806.5 19.636416
1807 19.724809
1807.5 19.56605
1808 19.724086
1808.5 19.604494
1809 19.639102
1809.5 19.626226
1810 19.694342
1810.5 19.859912
1811 19.747159
1811.5 19.91834
1812 19.687152
1812.5 19.958647
1813 19.595002
1813.5 19.756939
1814 19.574298
1814.5 19.729404
1815 19.87334
1815.5 19.964685
1816 20.013292
1816.5 19.77503
1817 19.992512
1817.5 19.840781
1818 19.892353
1818.5 19.770153
1819 19.806784
1819.5 19.710307
1820 19.80855
1820.5 19.982277
1821 19.972424
1821.5 20.169118
1822 20.046693
1822.5 20.233449
1823 19.939439
1823.5 20.102651
1824 19.886534
1824.5 19.88942
1825 19.851446
1825.5 19.811642
1826 20.246033
1826.5 20.203367
1827 20.218301
1827.5 19.841459
1828 20.10847
1828.5 20.01958
1829 20.152676
1829.5 19.93749
1830 20.101312
1830.5 20.18144
1831 20.315446
1831.5 20.366044
1832 20.270364
1832.5 20.405093
1833 20.170565
1833.5 20.206633
1834 20.001359
1834.5 20.010473
1835 20.215046
1835.5 20.190254
1836 20.15997
1836.5 20.153613
1837 20.401719
1837.5 20.319782
1838 20.485313
1838.5 20.172668
1839 20.220955
1839.5 20.130754
1840 20.282966
1840.5 20.176344
1841 20.254266
1841.5 20.422278
1842 20.533252
1842.5 20.615442
1843 20.533539
1843.5 20.656593
1844 20.415609
1844.5 20.587309
1845 20.303889
1845.5 20.351894
1846 20.321016
1846.5 20.250797
1847 20.517859
1847.5 20.420071
1848 20.709713
1848.5 20.406383
1849 20.789658
1849.5 20.556706
1850 20.684028
1850.5 20.497909
1851 20.464954
1851.5 20.576209
1852 20.300569
1852.5 20.555425
1853 20.452778
1853.5 20.842233
1854 20.803605
1854.5 20.755634
1855 20.507964
1855.5 20.596422
1856 20.791392
1856.5 20.764676
1857 20.941812
1857.5 20.555055
1858 20.685513
1858.5 20.356512
1859 20.695136
1859.5 20.579684
1860 20.83469
1860.5 21.027669
1861 20.889288
1861.5 20.844278
1862 20.587462
1862.5 20.714724
1863 20.709325
1863.5 20.952417
1864 20.826554
1864.5 21.092488
1865 20.933817
1865.5 20.902781
1866 20.710945
1866.5 20.740366
1867 20.767823
1867.5 20.980591
1868 21.166335
1868.5 20.884725
1869 20.9509
1869.5 20.689937
1870 20.899715
1870.5 20.938408
1871 20.909542
1871.5 20.927905
1872 20.938101
1872.5 20.994653
1873 20.822181
1873.5 21.223302
1874 21.032192
1874.5 21.077198
1875 20.857689
1875.5 20.976608
1876 20.946331
1876.5 21.187173
1877 21.207428
1877.5 21.117568
1878 21.217054
1878.5 20.959929
1879 21.135208
1879.5 21.052195
1880 21.209951
1880.5 21.206877
1881 21.31962
1881.5 21.242657
1882 20.930617
1882.5 21.132667
1883 20.953622
1883.5 21.274097
1884 21.105072
1884.5 21.352471
1885 21.140115
1885.5 21.286102
1886 21.213546
1886.5 21.32874
1887 21.352863
1887.5 21.228994
1888 21.219753
1888.5 21.082741
1889 21.194948
1889.5 21.191564
1890 21.540995
1890.5 21.352407
1891 21.335208
1891.5 21.385823
1892 21.383393
1892.5 21.646389
1893 21.419516
1893.5 21.672182
1894 21.323293
1894.5 21.562018
1895 21.356113
1895.5 21.413575
1896 21.359915
1896.5 21.354821
1897 21.421343
1897.5 21.340565
1898 21.364878
1898.5 21.171631
1899 21.610819
1899.5 21.599495
1900 21.78793
1900.5 21.595341
1901 21.638115
1901.5 21.525986
1902 21.510506
1902.5 21.571516
1903 21.43133
1903.5 21.590956
1904 21.355596
1904.5 21.443485
1905 21.45879
1905.5 21.667105
1906 21.713443
1906.5 21.831918
1907 21.858959
1907.5 21.62201
1908 21.751143
1908.5 21.575561
1909 21.717142
1909.5 21.42681
1910 21.710992
1910.5 21.562684
1911 21.661712
1911.5 21.567236
1912 21.599813
1912.5 21.597624
1913 21.678698
1913.5 21.886919
1914 21.79441
1914.5 21.996745
1915 21.803313
1915.5 21.985839
1916 21.92259
1916.5 21.932232
1917 21.943805
1917.5 21.847518
1918 21.814683
1918.5 21.574198
1919 21.739621
1919.5 21.679603
1920 21.963435
1920.5 21.834306
1921 22.13544
1921.5 21.963269
1922 22.054823
1922.5 21.873342
1923 21.846692
1923.5 21.962123
1924 21.852607
1924.5 22.010008
1925 21.819423
1925.5 22.022757
1926 21.849731
1926.5 22.068965
1927 22.02913
1927.5 21.981226
1928 22.167103
1928.5 22.025639
1929 22.159646
1929.5 22.006662
1930 22.177066
1930.5 21.974909
1931 22.138703
1931.5 22.02176
1932 22.111709
1932.5 22.065657
1933 21.984716
1933.5 22.199707
1934 22.017889
1934.5 22.187601
1935 21.9539
1935.5 22.222549
1936 22.131616
1936.5 22.254469
1937 22.153708
1937.5 22.174604
1938 22.217178
1938.5 22.129966
1939 22.274357
1939.5 22.140485
1940 22.294165
1940.5 22.185932
1941 22.367749
1941.5 22.163895
1942 22.205745
1942.5 22.235295
1943 22.194195
1943.5 22.270426
1944 22.044571
1944.5 22.387619
1945 22.205056
1945.5 22.33813
1946 22.179772
1946.5 22.396155
1947 22.218356
1947.5 22.33469
1948 22.257422
1948.5 22.315158
1949 22.377014
1949.5 22.251649
1950 22.438602
1950.5 22.250614
1951 22.440003
1951.5 22.32161
1952 22.434227
1952.5 22.327819
1953 22.352846
1953.5 22.430101
1954 22.406413
1954.5 22.384906
1955 22.1875
1955.5 22.523718
1956 22.218385
1956.5 22.538817
1957 22.34399
1957.5 22.5091
1958 22.404592
1958.5 22.452882
1959 22.507298
1959.5 22.374941
1960 22.566617
1960.5 22.328721
1961 22.587289
1961.5 22.447228
1962 22.537717
1962.5 22.466807
1963 22.559425
1963.5 22.54712
1964 22.487001
1964.5 22.592868
1965 22.440512
1965.5 22.729029
1966 22.463128
1966.5 22.655393
1967 22.327231
1967.5 22.620568
1968 22.512473
1968.5 22.62177
1969 22.664806
1969.5 22.437735
1970 22.716567
1970.5 22.59531
1971 22.711568
1971.5 22.577012
1972 22.797957
1972.5 22.680634
1973 22.71231
1973.5 22.703101
1974 22.708564
1974.5 22.748443
1975 22.606832
1975.5 22.801897
1976 22.601546
1976.5 22.729085
1977 22.714348
1977.5 22.743183
1978 22.717428
1978.5 22.710036
1979 22.771516
1979.5 22.727172
1980 22.830199
1980.5 22.710152
1981 22.830373
1981.5 22.72864
1982 22.890434
1982.5 22.748646
1983 22.900411
1983.5 22.765625
1984 22.860599
1984.5 22.91913
1985 22.869626
1985.5 22.888322
1986 22.79803
1986.5 22.937112
1987 22.760446
1987.5 22.879979
1988 22.931872
1988.5 22.960556
1989 22.925699
1989.5 22.83247
1990 23.058826
1990.5 22.879168
1991 23.022175
1991.5 22.797172
1992 23.096323
1992.5 22.890593
1993 23.12195
1993.5 22.989914
1994 22.988598
1994.5 23.039097
1995 23.013183
1995.5 23.123111
1996 23.012625
1996.5 23.219003
1997 22.983523
1997.5 23.163015
1998 23.066412
1998.5 23.121065
1999 23.068959
1999.5 23.089182
2000 23.191646
2000.5 22.943771
2001 23.207946
2001.5 22.923146
2002 23.263094
2002.5 23.001851
2003 23.195206
2003.5 23.075858
2004 23.164435
2004.5 23.263575
2005 23.080964
2005.5 23.19137
2006 23.055816
2006.5 23.332743
2007 23.209707
2007.5 23.404495
2008 23.259076
2008.5 23.369411
2009 23.262282
2009.5 23.148598
2010 23.320104
2010.5 23.120448
2011 23.333481
2011.5 23.160543
2012 23.311962
2012.5 23.148304
2013 23.281758
2013.5 23.242006
2014 23.330817
2014.5 23.229629
2015 23.143128
2015.5 23.379371
2016 23.270386
2016.5 23.397399
2017 23.220736
2017.5 23.479466
2018 23.282856
2018.5 23.453596
2019 23.424666
2019.5 23.415048
2020 23.552459
2020.5 23.481806
2021 23.499513
2021.5 23.250662
2022 23.439436
2022.5 23.325129
2023 23.478088
2023.5 23.356979
2024 23.405704
2024.5 23.513523
2025 23.524186
2025.5 23.520724
2026 23.282835
2026.5 23.530398
2027 23.378079
2027.5 23.499605
2028 23.360945
2028.5 23.535484
2029 23.475005
2029.5 23.560396
2030 23.644486
2030.5 23.522227
2031 23.520203
2031.5 23.466754
2032 23.554286
2032.5 23.502044
2033 23.520562
2033.5 23.571484
2034 23.641445
2034.5 23.588826
2035 23.52757
2035.5 23.73329
2036 23.57683
2036.5 23.816688
2037 23.366161
2037.5 23.679024
2038 23.507121
2038.5 23.690195
2039 23.628095
2039.5 23.663828
2040 23.7001
2040.5 23.638049
2041 23.874082
2041.5 23.718548
2042 23.95703
2042.5 23.709497
2043 23.927718
2043.5 23.669259
2044 23.720165
2044.5 23.729797
2045 23.774649
2045.5 23.902525
2046 23.684227
2046.5 23.901851
2047 23.591776
2047.5 23.814476
2048 23.690091
2048.5 23.801763
2049 23.66759
2049.5 23.715247
2050 23.867245
2050.5 23.749857
2051 23.946445
2051.5 23.802444
2052 24.045709
2052.5 23.888886
2053 23.927519
2053.5 23.737702
2054 23.877886
2054.5 23.994212
2055 23.918673
2055.5 24.024871
2056 23.787875
2056.5 24.02425
2057 23.891918
2057.5 24.024074
2058 23.801918
2058.5 23.981367
2059 23.916067
2059.5 23.938686
2060 23.97467
2060.5 23.785645
2061 24.068227
2061.5 23.941389
2062 24.079816
2062.5 23.912339
2063 24.09738
2063.5 23.905778
2064 24.097346
2064.5 23.972258
2065 24.039076
2065.5 24.094088
2066 23.98811
2066.5 24.121292
2067 23.956676
2067.5 24.139772
2068 23.977321
2068.5 24.18256
2069 24.065882
2069.5 24.004361
2070 24.127918
2070.5 24.095222
2071 24.12875
2071.5 23.93609
2072 24.255656
2072.5 24.037401
2073 24.188726
2073.5 24.021588
2074 24.204811
2074.5 24.121484
2075 24.125479
2075.5 24.147443
2076 24.098243
2076.5 24.320701
2077 24.128605
2077.5 24.387313
2078 24.169397
2078.5 24.34129
2079 24.166638
2079.5 24.224368
2080 24.237663
2080.5 24.189466
2081 24.334076
2081.5 24.163814
2082 24.38762
2082.5 24.16079
2083 24.32541
2083.5 24.084017
2084 24.36057
2084.5 24.246424
2085 24.261807
2085.5 24.387193
2086 24.263376
2086.5 24.497283
2087 24.291466
2087.5 24.504164
2088 24.201183
2088.5 24.465561
2089 24.391575
2089.5 24.382827
2090 24.416241
2090.5 24.398065
2091 24.43254
2091.5 24.305873
2092 24.47765
2092.5 24.250001
2093 24.507488
2093.5 24.378556
2094 24.467732
2094.5 24.528962
2095 24.422216
2095.5 24.492964
2096 24.307133
2096.5 24.503273
2097 24.292748
2097.5 24.571159
2098 24.487279
2098.5 24.631178
2099 24.442646
2099.5 24.530646
2100 24.469267
2100.5 24.454673
2101 24.607004
2101.5 24.504973
2102 24.736811
2102.5 24.52971
2103 24.664685
2103.5 24.556196
2104 24.540298
2104.5 24.574229
2105 24.491671
2105.5 24.560833
2106 24.444957
2106.5 24.690352
2107 24.526231
2107.5 24.66545
2108 24.554321
2108.5 24.76102
2109 24.477305
2109.5 24.681698
2110 24.638282
2110.5 24.662594
2111 24.770422
2111.5 24.669448
2112 24.819739
2112.5 24.667305
2113 24.83124
2113.5 24.692506
2114 24.696814
2114.5 24.68161
2115 24.62915
2115.5 24.800733
2116 24.713002
2116.5 24.835752
2117 24.602328
2117.5 24.935712
2118 24.647097
2118.5 24.911407
2119 24.609432
2119.5 24.801487
2120 24.706168
2120.5 24.783963
2121 24.767442
2121.5 24.741264
2122 24.940614
2122.5 24.736589
2123 25.024691
2123.5 24.829218
2124 24.918836
2124.5 24.806191
2125 24.89395
2125.5 24.832562
2126 24.785094
2126.5 24.935892
2127 24.806726
2127.5 25.062525
2128 24.730618
2128.5 24.956945
2129 24.800591
2129.5 24.902597
2130 24.848568
2130.5 24.932154
2131 24.928774
2131.5 24.82007
2132 25.063992
2132.5 24.951915
2133 25.124514
2133.5 24.841814
2134 25.021559
2134.5 24.908723
2135 24.986674
2135.5 24.99242
2136 24.993977
2136.5 25.122836
2137 24.996822
2137.5 25.121185
2138 24.957454
2138.5 25.075272
2139 24.949233
2139.5 25.082734
2140 25.010651
2140.5 25.020581
2141 25.064752
2141.5 25.037658
2142 25.103059
2142.5 24.894027
2143 25.195491
2143.5 25.059938
2144 25.264233
2144.5 25.015366
2145 25.203156
2145.5 25.097442
2146 25.147641
2146.5 25.133854
2147 25.075954
2147.5 25.282279
2148 25.09059
2148.5 25.226679
2149 25.101289
2149.5 25.17246
2150 25.172302
2150.5 25.212958
2151 25.100037
2151.5 25.062978
2152 25.255242
2152.5 25.124329
2153 25.301784
2153.5 25.063866
2154 25.332397
2154.5 25.184244
2155 25.322601
2155.5 25.257054
2156 25.258845
2156.5 25.213027
2157 25.134411
2157.5 25.307766
2158 25.2094
2158.5 25.345272
2159 25.248012
2159.5 25.387421
2160 25.315595
2160.5 25.377387
2161 25.327504
2161.5 25.429663
2162 25.466883
2162.5 25.130492
2163 25.329405
2163.5 25.123078
2164 25.413719
2164.5 25.204831
2165 25.425079
2165.5 25.283736
2166 25.370708
2166.5 25.394523
2167 25.352773
2167.5 25.51564
2168 25.307319
2168.5 25.613406
2169 25.492284
2169.5 25.601965
2170 25.328064
2170.5 25.481385
2171 25.447169
2171.5 25.354388
2172 25.526255
2172.5 25.358745
2173 25.506827
2173.5 25.375956
2174 25.553194
2174.5 25.354898
2175 25.540727
2175.5 25.514004
2176 25.582117
2176.5 25.537068
2177 25.410864
2177.5 25.589564
2178 25.502026
2178.5 25.627539
2179 25.384843
2179.5 25.603408
2180 25.470272
2180.5 25.598809
2181 25.591028
2181.5 25.699785
2182 25.731114
2182.5 25.673288
2183 25.806195
2183.5 25.562376
2184 25.639078
2184.5 25.55325
2185 25.686446
2185.5 25.561607
2186 25.587702
2186.5 25.714228
2187 25.68211
2187.5 25.749528
2188 25.581071
2188.5 25.889468
2189 25.659257
2189.5 25.765792
2190 25.616735
2190.5 25.724095
2191 25.651872
2191.5 25.763953
2192 25.729191
2192.5 25.691491
2193 25.766009
2193.5 25.690693
2194 25.835145
2194.5 25.712097
2195 25.945079
2195.5 25.832465
2196 25.981835
2196.5 25.7532
2197 25.664106
2197.5 25.81301
2198 25.704196
2198.5 25.866625
2199 25.571713
2199.5 25.857052
2200 25.618011
2200.5 25.928277
2201 25.801322
2201.5 25.892532
2202 25.907734
2202.5 25.789547
2203 25.929859
2203.5 25.782102
2204 25.965413
2204.5 25.73258
2205 26.016647
2205.5 25.872737
2206 25.921559
2206.5 25.901011
2207 25.938359
2207.5 26.058012
2208 25.94184
2208.5 26.137894
2209 25.877258
2209.5 26.056623
2210 25.79971
2210.5 26.013938
2211 25.787193
2211.5 25.949147
2212 25.910625
2212.5 25.995302
2213 26.035801
2213.5 25.764823
2214 26.127592
2214.5 26.011118
2215 26.2173
2215.5 26.013985
2216 26.178589
2216.5 25.989059
2217 26.030597
2217.5 26.028445
2218 25.989822
2218.5 26.14457
2219 26.033247
2219.5 26.1298
2220 25.98184
2220.5 26.180229
2221 26.039857
2221.5 26.191235
2222 26.188591
2222.5 26.124468
2223 26.129335
2223.5 26.073819
2224 26.150107
2224.5 25.875184
2225 26.173514
2225.5 25.998545
2226 26.227027
2226.5 26.073503
2227 26.181045
2227.5 26.234141
2228 26.180378
2228.5 26.33993
2229 26.210007
2229.5 26.383179
2230 26.118112
2230.5 26.278555
2231 26.090741
2231.5 26.199973
2232 26.2227
2232.5 26.296857
2233 26.25193
2233.5 26.194689
2234 26.378489
2234.5 26.195592
2235 26.325479
2235.5 26.035401
2236 26.347417
2236.5 26.182637
2237 26.376951
2237.5 26.262417
2238 26.222569
2238.5 26.270628
2239 26.175773
2239.5 26.375356
2240 26.287302
2240.5 26.438853
2241 26.274279
2241.5 26.454583
2242 26.349917
2242.5 26.374701
2243 26.3495
2243.5 26.231557
2244 26.374447
2244.5 26.19738
2245 26.438582
2245.5 26.163584
2246 26.408586
2246.5 26.247492
2247 26.395828
2247.5 26.358551
2248 26.39811
2248.5 26.418099
2249 26.467407
2249.5 26.55929
2250 26.238629
2250.5 26.511484
2251 26.401037
2251.5 26.534402
2252 26.373628
2252.5 26.463881
2253 26.439509
2253.5 26.422581
2254 26.509759
2254.5 26.382029
2255 26.6976
2255.5 26.494193
2256 26.597637
2256.5 26.383179
2257 26.451278
2257.5 26.43263
2258 26.461378
2258.5 26.429042
2259 26.316828
2259.5 26.548177
2260 26.465315
2260.5 26.575521
2261 26.429296
2261.5 26.629555
2262 26.364723
2262.5 26.599136
2263 26.483643
2263.5 26.470238
2264 26.468328
2264.5 26.466906
2265 26.548114
2265.5 26.420984
2266 26.638505
2266.5 26.492655
2267 26.641569
2267.5 26.554129
2268 26.609388
2268.5 26.531416
2269 26.527119
2269.5 26.639631
2270 26.449457
2270.5 26.652476
2271 26.465794
2271.5 26.683247
2272 26.404247
2272.5 26.622823
2273 26.585647
2273.5 26.731646
2274 26.597098
2274.5 26.547566
2275 26.643047
2275.5 26.568246
2276 26.763597
2276.5 26.590714
2277 26.687777
2277.5 26.585931
2278 26.694065
2278.5 26.644054
2279 26.57024
2279.5 26.706442
2280 26.559922
2280.5 26.711714
2281 26.493281
2281.5 26.858121
2282 26.610684
2282.5 26.85886
2283 26.675576
2283.5 26.71012
2284 26.640043
2284.5 26.512155
2285 26.803088
2285.5 26.626843
2286 26.797888
2286.5 26.591292
2287 26.848558
2287.5 26.644123
2288 26.738656
2288.5 26.753014
2289 26.789019
2289.5 26.939079
2290 26.781735
2290.5 26.814216
2291 26.599509
2291.5 26.872218
2292 26.702341
2292.5 26.78009
2293 26.683828
2293.5 26.776683
2294 26.823664
2294.5 26.795748
2295 26.856813
2295.5 26.703522
2296 26.986894
2296.5 26.87147
2297 26.954708
2297.5 26.691455
2298 26.849875
2298.5 26.79241
2299 26.85096
2299.5 26.885
2300 26.798227
2300.5 27.015963
2301 26.803285
2301.5 26.943547
2302 26.771781
2302.5 26.908779
2303 26.848263
2303.5 26.965368
2304 26.954108
2304.5 26.919338
2305 27.076676
2305.5 26.839843
2306 26.92346
2306.5 26.729628
2307 26.990604
2307.5 26.802891
2308 26.993307
2308.5 26.920876
2309 26.989087
2309.5 27.029082
2310 26.948306
2310.5 27.023768
2311 26.891273
2311.5 27.22899
2312 27.012622
2312.5 27.223963
2313 27.051383
2313.5 27.103281
2314 27.006936
2314.5 27.064314
2315 27.063763
2315.5 26.867634
2316 27.097189
2316.5 26.827922
2317 27.084759
2317.5 26.905078
2318 27.074343
2318.5 26.984301
2319 27.132961
2319.5 27.082032
2320 27.051187
2320.5 27.156419
2321 27.006853
2321.5 27.239192
2322 27.080354
2322.5 27.238658
2323 27.118659
2323.5 27.286553
2324 27.218834
2324.5 27.228439
2325 27.34344
2325.5 27.18178
2326 27.32501
2326.5 27.025813
2327 27.281302
2327.5 26.999298
2328 27.228448
2328.5 27.18493
2329 27.198473
2329.5 27.200717
2330 27.124444
2330.5 27.322984
2331 27.211332
2331.5 27.346784
2332 27.126098
2332.5 27.424571
2333 27.256161
2333.5 27.358723
2334 27.30687
2334.5 27.372077
2335 27.31638
2335.5 27.185163
2336 27.419305
2336.5 27.213404
2337 27.423993
2337.5 27.200928
2338 27.367109
2338.5 27.201515
2339 27.312756
2339.5 27.330136
2340 27.329865
2340.5 27.395642
2341 27.227235
2341.5 27.49435
2342 27.378938
2342.5 27.518356
2343 27.339977
2343.5 27.55653
2344 27.427885
2344.5 27.436897
2345 27.380973
2345.5 27.392411
2346 27.488434
2346.5 27.338421
2347 27.594909
2347.5 27.369153
2348 27.459046
2348.5 27.40818
2349 27.492046
2349.5 27.404541
2350 27.398351
2350.5 27.637887
2351 27.50122
2351.5 27.668986
2352 27.35469
2352.5 27.550623
2353 27.313346
2353.5 27.53039
2354 27.435747
2354.5 27.574772
2355 27.519992
2355.5 27.487454
2356 27.513403
2356.5 27.460024
2357 27.597702
2357.5 27.464104
2358 27.665952
2358.5 27.507636
2359 27.616334
2359.5 27.596834
2360 27.620724
2360.5 27.611145
2361 27.517143
2361.5 27.777576
2362 27.539811
2362.5 27.660549
2363 27.356488
2363.5 27.678838
2364 27.528477
2364.5 27.609074
2365 27.615798
2365.5 27.618092
2366 27.667663
2366.5 27.489144
2367 27.788875
2367.5 27.668509
2368 27.880701
2368.5 27.643058
2369 27.894297
2369.5 27.702343
2370 27.678204
2370.5 27.736616
2371 27.66023
2371.5 27.871773
2372 27.608505
2372.5 27.823287
2373 27.587184
2373.5 27.768406
2374 27.712116
2374.5 27.838886
2375 27.70423
2375.5 27.675831
2376 27.873483
2376.5 27.756473
2377 27.791524
2377.5 27.65094
2378 27.849832
2378.5 27.76522
2379 27.893081
2379.5 27.749395
2380 27.832133
2380.5 27.835983
2381 27.770835
2381.5 27.876005
2382 27.782455
2382.5 27.984619
2383 27.780917
2383.5 27.971303
2384 27.797225
2384.5 27.950439
2385 27.916113
2385.5 27.937958
2386 27.855021
2386.5 27.814254
2387 27.969521
2387.5 27.772978
2388 27.970952
2388.5 27.76517
2389 27.945614
2389.5 27.813485
2390 27.939743
2390.5 27.939424
2391 27.961025
2391.5 27.996793
2392 27.94013
2392.5 28.08401
2393 27.98031
2393.5 28.020155
2394 27.825704
2394.5 28.027493
2395 27.917197
2395.5 27.928448
2396 28.018677
2396.5 27.95904
2397 28.026676
2397.5 27.817208
2398 28.098536
2398.5 27.781516
2399 28.097007
2399.5 27.968696
2400 28.124124
2400.5 28.050619
2401 28.100234
2401.5 28.081292
2402 27.990335
2402.5 28.150675
2403 27.859694
2403.5 28.199863
2404 28.034148
2404.5 28.162709
2405 28.035077
2405.5 28.170046
2406 28.17772
2406.5 28.013578
2407 28.235745
2407.5 28.054765
2408 28.317907
2408.5 28.083661
2409 28.32163
2409.5 27.978998
2410 28.173858
2410.5 28.087932
2411 28.114614
2411.5 28.139091
2412 27.939805
2412.5 28.259179
2413 28.107142
2413.5 28.326443
2414 28.110123
2414.5 28.397134
2415 28.136274
2415.5 28.249729
2416 28.182533
2416.5 28.147164
2417 28.254524
2417.5 28.144071
2418 28.339237
2418.5 28.101256
2419 28.327128
2419.5 28.172401
2420 28.36026
2420.5 28.275603
2421 28.242925
2421.5 28.315273
2422 28.322989
2422.5 28.281447
2423 28.112552
2423.5 28.36816
2424 28.211221
2424.5 28.375778
2425 28.217736
2425.5 28.36048
2426 28.34872
2426.5 28.400186
2427 28.387994
2427.5 28.326729
2428 28.476453
2428.5 28.395364
2429 28.477985
2429.5 28.263938
2430 28.380629
2430.5 28.316849
2431 28.408864
2431.5 28.366315
2432 28.271574
2432.5 28.472993
2433 28.303403
2433.5 28.373483
2434 28.18377
2434.5 28.448239
2435 28.348437
2435.5 28.533968
2436 28.366578
2436.5 28.447643
2437 28.510904
2437.5 28.387555
2438 28.495955
2438.5 28.377715
2439 28.569394
2439.5 28.398928
2440 28.637433
2440.5 28.473061
2441 28.436166
2441.5 28.46927
2442 28.454652
2442.5 28.543741
2443 28.383756
2443.5 28.617838
2444 28.244916
2444.5 28.550458
2445 28.341782
2445.5 28.524804
2446 28.425759
2446.5 28.552687
2447 28.571483
2447.5 28.529108
2448 28.551865
2448.5 28.285897
2449 28.613925
2449.5 28.423405
2450 28.588411
2450.5 28.509405
2451 28.618884
2451.5 28.57452
2452 28.605032
2452.5 28.618172
2453 28.50408
2453.5 28.732741
2454 28.555074
2454.5 28.761113
2455 28.552717
2455.5 28.623003
2456 28.480673
2456.5 28.574643
2457 28.576368
2457.5 28.467226
2458 28.702313
2458.5 28.569308
2459 28.735554
2459.5 28.553614
2460 28.690347
2460.5 28.517747
2461 28.633702
2461.5 28.564769
2462 28.670394
2462.5 28.747952
2463 28.657591
2463.5 28.724673
2464 28.609776
2464.5 28.762302
2465 28.652143
2465.5 28.761399
2466 28.646475
2466.5 28.734934
2467 28.765848
2467.5 28.809917
2468 28.746557
2468.5 28.517094
2469 28.753617
2469.5 28.527853
2470 28.752744
2470.5 28.611696
2471 28.857818
2471.5 28.693724
2472 28.895187
2472.5 28.840408
2473 28.826401
2473.5 28.886196
2474 28.777072
2474.5 28.977215
2475 28.773031
2475.5 28.995004
2476 28.841186
2476.5 29.002133
2477 28.761837
2477.5 28.735611
2478 28.916833
2478.5 28.813928
2479 28.923878
2479.5 28.679559
2480 28.97473
2480.5 28.737223
2481 29.056048
2481.5 28.767776
2482 28.829768
2482.5 28.8214
2483 28.777224
2483.5 28.935909
2484 28.804764
2484.5 28.95377
2485 28.811464
2485.5 29.169059
2486 28.96488
2486.5 29.027739
2487 28.970385
2487.5 29.067037
2488 28.990659
2488.5 28.830084
2489 29.041678
2489.5 28.842181
2490 29.067823
2490.5 28.858772
2491 29.014036
2491.5 28.896394
2492 29.013899
2492.5 28.974605
2493 28.99287
2493.5 29.030344
2494 28.79838
2494.5 29.177037
2495 28.987634
2495.5 29.15321
2496 28.871909
2496.5 29.143399
2497 29.034144
2497.5 29.106221
2498 29.014379
2498.5 28.989553
2499 29.121405
2499.5 28.99929
2500 29.193354
2500.5 28.900397
2501 29.105699
2501.5 29.064512
2502 29.114017
2502.5 29.032499
2503 29.007164
2503.5 29.165804
2504 29.14716
2504.5 29.133907
2505 28.912994
2505.5 29.309639
2506 29.089981
2506.5 29.205692
2507 29.079884
2507.5 29.249948
2508 29.188547
2508.5 29.206714
2509 29.222727
2509.5 29.071394
2510 29.296041
2510.5 29.064241
2511 29.334357
2511.5 29.114848
2512 29.201931
2512.5 29.141384
2513 29.195094
2513.5 29.087776
2514 29.01848
2514.5 29.232672
2515 29.140589
2515.5 29.335997
2516 29.098633
2516.5 29.383329
2517 29.237789
2517.5 29.385895
2518 29.339051
2518.5 29.353604
2519 29.335988
2519.5 29.265863
2520 29.434186
2520.5 29.272676
2521 29.384211
2521.5 29.19687
2522 29.416153
2522.5 29.221928
2523 29.258493
2523.5 29.3484
2524 29.330727
2524.5 29.429647
2525 29.262874
2525.5 29.52143
2526 29.226422
2526.5 29.507875
2527 29.299858
2527.5 29.426658
2528 29.304773
2528.5 29.216462
2529 29.346469
2529.5 29.245535
2530 29.306352
2530.5 29.101583
2531 29.407772
2531.5 29.276285
2532 29.488021
2532.5 29.402602
2533 29.51546
2533.5 29.477593
2534 29.462889
2534.5 29.561257
2535 29.337189
2535.5 29.623899
2536 29.450577
2536.5 29.695773
2537 29.525003
2537.5 29.625598
2538 29.503798
2538.5 29.504302
2539 29.496574
2539.5 29.340297
2540 29.610333
2540.5 29.431149
2541 29.541308
2541.5 29.353079
2542 29.506639
2542.5 29.437688
2543 29.617918
2543.5 29.53994
2544 29.584917
2544.5 29.680565
2545 29.609284
2545.5 29.711032
2546 29.412055
2546.5 29.609165
2547 29.445475
2547.5 29.538444
2548 29.379839
2548.5 29.411411
2549 29.478544
2549.5 29.474387
2550 29.581314
2550.5 29.44856
2551 29.769742
2551.5 29.460594
2552 29.732752
2552.5 29.520169
2553 29.846254
2553.5 29.739809
2554 29.859376
2554.5 29.8336
2555 29.859638
2555.5 29.888132
2556 29.686901
2556.5 29.85552
2557 29.63022
2557.5 29.793745
2558 29.587603
2558.5 29.617503
2559 29.549474
2559.5 29.440311
2560 29.541963
2560.5 29.518875
2561 29.585037
2561.5 29.413167
2562 29.755682
2562.5 29.564905
2563 29.814515
2563.5 29.710397
2564 29.874212
2564.5 29.864448
2565 29.785812
2565.5 29.931167
2566 29.774639
2566.5 29.853427
2567 29.643482
2567.5 29.969212
2568 29.796603
2568.5 29.743159
2569 29.662013
2569.5 29.768413
2570 29.807958
2570.5 29.630005
2571 29.794547
2571.5 29.575503
2572 29.726639
2572.5 29.567531
2573 29.873416
2573.5 29.707828
2574 29.855639
2574.5 29.91626
2575 29.890826
2575.5 29.903719
2576 29.681823
2576.5 30.088684
2577 29.9923
2577.5 30.107459
2578 29.805267
2578.5 29.915261
2579 29.775983
2579.5 29.782471
2580 29.861721
2580.5 29.797372
2581 29.965457
2581.5 29.761302
2582 29.861867
2582.5 29.718927
2583 29.791525
2583.5 29.786122
2584 29.974687
2584.5 29.87152
2585 29.86545
2585.5 29.974893
2586 29.971722
2586.5 30.104554
2587 29.926208
2587.5 30.23532
2588 30.011541
2588.5 30.115595
2589 29.900944
2589.5 29.93629
2590 29.894564
2590.5 29.949936
2591 29.972219
2591.5 29.807687
2592 29.990792
2592.5 29.827824
2593 30.062675
2593.5 29.818285
2594 30.086491
2594.5 30.059552
2595 30.040175
2595.5 30.038396
2596 29.985628
2596.5 30.246842
2597 30.053777
2597.5 30.443996
2598 30.147037
2598.5 30.323851
2599 30.074102
2599.5 30.174357
2600 30.013481
2600.5 30.088896
2601 30.016252
2601.5 29.968947
2602 30.172145
2602.5 29.950625
2603 30.033532
2603.5 29.862309
2604 30.199724
2604.5 30.103028
2605 30.119938
2605.5 30.207458
2606 30.144796
2606.5 30.270755
2607 30.066046
2607.5 30.375811
2608 30.096406
2608.5 30.403206
2609 30.193034
2609.5 30.436423
2610 30.368397
2610.5 30.218545
2611 30.260575
2611.5 30.209616
2612 30.278361
2612.5 30.013323
2613 30.310267
2613.5 30.162618
2614 30.278915
2614.5 30.080277
2615 30.135649
2615.5 30.089337
2616 30.045709
2616.5 30.357671
2617 30.254391
2617.5 30.446252
2618 30.241036
2618.5 30.355906
2619 30.33267
2619.5 30.47339
2620 30.316758
2620.5 30.345416
2621 30.603552
2621.5 30.359933
2622 30.483335
2622.5 30.472243
2623 30.455962
2623.5 30.404809
2624 30.30681
2624.5 30.458811
2625 30.26647
2625.5 30.383661
2626 30.085102
2626.5 30.396312
2627 30.240884
2627.5 30.333444
2628 30.207658
2628.5 30.212453
2629 30.381128
2629.5 30.392146
2630 30.526015
2630.5 30.333406
2631 30.486453
2631.5 30.342031
2632 30.535015
2632.5 30.37684
2633 30.573478
2633.5 30.545971
2634 30.740967
2634.5 30.628318
2635 30.486876
2635.5 30.730775
2636 30.501381
2636.5 30.734542
2637 30.456054
2637.5 30.575439
2638 30.511335
2638.5 30.604893
2639 30.521289
2639.5 30.477983
2640 30.622211
2640.5 30.312151
2641 30.582246
2641.5 30.382997
2642 30.651665
2642.5 30.505422
2643 30.649307
2643.5 30.606872
2644 30.592644
2644.5 30.764404
2645 30.605084
2645.5 30.880678
2646 30.610409
2646.5 30.880281
2647 30.565575
2647.5 30.732143
2648 30.522346
2648.5 30.649203
2649 30.637816
2649.5 30.555665
2650 30.698043
2650.5 30.461878
2651 30.700463
2651.5 30.422881
2652 30.803296
2652.5 30.616596
2653 30.754519
2653.5 30.662206
2654 30.763447
2654.5 30.829087
2655 30.722028
2655.5 30.870748
2656 30.668649
2656.5 30.821252
2657 30.659336
2657.5 30.734402
2658 30.62031
2658.5 30.802351
2659 30.708456
2659.5 30.766046
2660 30.751172
2660.5 30.571336
2661 30.811223
2661.5 30.679852
2662 30.796722
2662.5 30.569935
2663 30.748403
2663.5 30.560359
2664 30.721125
2664.5 30.728427
2665 30.641982
2665.5 30.81162
2666 30.615684
2666.5 30.725831
2667 30.617431
2667.5 30.876076
2668 30.68909
2668.5 30.803949
2669 30.677515
2669.5 30.755278
2670 30.904269
2670.5 30.865845
2671 30.94376
2671.5 30.499929
2672 30.756229
2672.5 30.595165
2673 30.759093
2673.5 30.569059
2674 30.775312
2674.5 30.740976
2675 30.792472
2675.5 30.850449
2676 30.835757
2676.5 31.035587
2677 30.765939
2677.5 30.940747
2678 30.774352
2678.5 30.938399
2679 30.79907
2679.5 30.901006
2680 30.92187
2680.5 30.75282
2681 31.018502
2681.5 30.811915
2682 31.111419
2682.5 30.750057
2683 31.025082
2683.5 30.872616
2684 31.055361
2684.5 30.944642
2685 31.029168
2685.5 31.043258
2686 30.879554
2686.5 31.20901
2687 31.093761
2687.5 31.274462
2688 31.004158
2688.5 31.25183
2689 31.039113
2689.5 31.024712
2690 30.919024
2690.5 30.895248
2691 31.041256
2691.5 30.913129
2692 31.052196
2692.5 30.765462
2693 31.06384
2693.5 31.024954
2694 31.107464
2694.5 30.96256
2695 30.936
2695.5 31.038168
2696 30.930343
2696.5 31.087309
2697 30.784801
2697.5 31.215754
2698 31.090432
2698.5 31.305
2699 31.122494
2699.5 31.344548
2700 31.253934
2700.5 31.269711
2701 31.330699
2701.5 31.262398
2702 31.300348
2702.5 31.120199
2703 31.292975
2703.5 31.097788
2704 31.106898
2704.5 31.045729
2705 31.126654
2705.5 31.139624
2706 31.057498
2706.5 31.163198
2707 30.949965
2707.5 31.084466
2708 30.828333
2708.5 31.162393
2709 31.063759
2709.5 31.288293
2710 31.195062
2710.5 31.233865
2711 31.306487
2711.5 31.123513
2712 31.381389
2712.5 31.235054
2713 31.553558
2713.5 31.319696
2714 31.385881
2714.5 31.195796
2715 31.185967
2715.5 31.276891
2716 31.267446
2716.5 31.194156
2717 31.076938
2717.5 31.277758
2718 30.929708
2718.5 31.213257
2719 31.017539
2719.5 31.063905
2720 31.057039
2720.5 31.227198
2721 31.268296
2721.5 31.212673
2722 31.296185
2722.5 31.043217
2723 31.38625
2723.5 31.237897
2724 31.363785
2724.5 31.201267
2725 31.387272
2725.5 31.528389
2726 31.317493
2726.5 31.432298
2727 31.354392
2727.5 31.63892
2728 31.378669
2728.5 31.620428
2729 31.314132
2729.5 31.472892
2730 31.306174
2730.5 31.414372
2731 31.343848
2731.5 31.190258
2732 31.430006
2732.5 31.329143
2733 31.45273
2733.5 31.176761
2734 31.484011
2734.5 31.204575
2735 31.36051
2735.5 31.225556
2736 31.198856
2736.5 31.318086
2737 31.252453
2737.5 31.420544
2738 31.144324
2738.5 31.417942
2739 31.301832
2739.5 31.536055
2740 31.333581
2740.5 31.295714
2741 31.407794
2741.5 31.381714
2742 31.389889
2742.5 31.22555
2743 31.522352
2743.5 31.33938
2744 31.509483
2744.5 31.427404
2745 31.672704
2745.5 31.634673
2746 31.649113
2746.5 31.522429
2747 31.496716
2747.5 31.543589
2748 31.402823
2748.5 31.569263
2749 31.343877
2749.5 31.472498
2750 31.403321
2750.5 31.529278
2751 31.442678
2751.5 31.418437
2752 31.492203
2752.5 31.432772
2753 31.551665
2753.5 31.308895
2754 31.521502
2754.5 31.23948
2755 31.498984
2755.5 31.339961
2756 31.448182
2756.5 31.438869
2757 31.427303
2757.5 31.575149
2758 31.400478
2758.5 31.585082
2759 31.414855
2759.5 31.622046
2760 31.444794
2760.5 31.556284
2761 31.5375
2761.5 31.618616
2762 31.652278
2762.5 31.512794
2763 31.599686
2763.5 31.314299
2764 31.493127
2764.5 31.264308
2765 31.538501
2765.5 31.39548
2766 31.585097
2766.5 31.523344
2767 31.499583
2767.5 31.646678
2768 31.408307
2768.5 31.783581
2769 31.560814
2769.5 31.751594
2770 31.608534
2770.5 31.821752
2771 31.708989
2771.5 31.715894
2772 31.797594
2772.5 31.744027
2773 31.818333
2773.5 31.580046
2774 31.74375
2774.5 31.562206
2775 31.690356
2775.5 31.571609
2776 31.655434
2776.5 31.585449
2777 31.61141
2777.5 31.836349
2778 31.5786
2778.5 31.733161
2779 31.486017
2779.5 31.842756
2780 31.481749
2780.5 31.695601
2781 31.560424
2781.5 31.652424
2782 31.68003
2782.5 31.611955
2783 31.75267
2783.5 31.610289
2784 31.809887
2784.5 31.675541
2785 31.895569
2785.5 31.668404
2786 31.740969
2786.5 31.716368
2787 31.823063
2787.5 31.841266
2788 31.649873
2788.5 31.926236
2789 31.726936
2789.5 31.904757
2790 31.62474
2790.5 31.890261
2791 31.723437
2791.5 31.934366
2792 31.963122
2792.5 32.064182
2793 32.089624
2793.5 31.893879
2794 32.041064
2794.5 31.820169
2795 31.984681
2795.5 31.706542
2796 31.829992
2796.5 31.762519
2797 31.732705
2797.5 31.867254
2798 31.718913
2798.5 31.818843
2799 31.640348
2799.5 31.940195
2800 31.803206
##END=
